# Created by:        SpecsLab Prodigy, Version 4.125.2-r125285 
#
# XY-Serializer Export Settings:
#   Comment Prefix:               #
#   Output Meta Data:             yes
#   Energy Axis:                  Binding Energy
#   Count Rate:                   Counts per Second
#   Separate Scan Data:           no
#   Separate Channel Data:        no
#   Separate Non-Energy Channels: yes
#   External Channel Data:        yes
#   Transmission Function:        no
#   Error Bar:                    no
#   Operation Results:            no
#   Time Zone Format:             Local Time
#
#
# Experiment Description:       
#
# Group:                        40um exit slit, 1200l/mm
# Scan Mode:                    ConstantFinalState
# Analyzer Lens Voltage:        1.5kV
# Calibration File:             C:/ProgramData/SPECS/SpecsLab Prodigy/Database/DatasetCalib1D\actual-shifts.calib1d
# Transmission File:            Default
# Analyzer Slit:                2:7x20\B:open
# Iris Diameter:                60
#
# Source Parameters
#   Name:                         BElChem-PGM
#   Polar Angle:                  45 °
#   Azimuth Angle:                45 °
#   ex_energy:                    919.99715061451002
#   device_state:                 operating
#
# Region:                       Spectrum
# Spectrum ID:                  2
# Acquisition Date:             2025-07-22 17:41:18 UTC+2
# Analysis Method:              XPS
# Analyzer Lens Mode:           Accelerating4
# Scan Variable:                Excitation Energy
# Curves/Scan:                  1
# Values/Curve:                 801
# Step Size:                    0.05
# Dwell Time:                   0.1
# Excitation Energy:            920
# Kinetic Energy:               385
# Pass Energy:                  10
# Bias Voltage:                 200
# Detector Voltage:             2150
# Eff. Workfunction:            4.25
#
# Comment:                      5th harmonic

# Cycle: 0
#
# Number of Scans: 1

# Cycle: 0, Curve: 0
#
# Acquisition Date:             2025-07-22 17:41:18 UTC+2
# ColumnLabels:                 energy counts/s
#
920  175860
920.05  178290
920.1  176700
920.15  179270
920.2  176310
920.25  176840
920.3  175830
920.35  172710
920.4  175740
920.45  177130
920.5  174640
920.55  174050
920.6  177140
920.65  174010
920.7  176290
920.75  171220
920.8  171410
920.85  171460
920.9  167860
920.95  168810
921  171160
921.05  170550
921.1  171430
921.15  170890
921.2  170730
921.25  169960
921.3  168870
921.35  166530
921.4  168320
921.45  166900
921.5  169640
921.55  168740
921.6  166690
921.65  168160
921.7  170610
921.75  168340
921.8  171270
921.85  170860
921.9  168530
921.95  169500
922  171100
922.05  171830
922.1  170810
922.15  170110
922.2  170840
922.25  171090
922.3  171480
922.35  171030
922.4  172780
922.45  170640
922.5  173280
922.55  171900
922.6  171840
922.65  174130
922.7  173490
922.75  174570
922.8  175440
922.85  171990
922.9  171440
922.95  173810
923  174530
923.05  174760
923.1  176100
923.15  176320
923.2  175120
923.25  174840
923.3  177020
923.35  174690
923.4  176980
923.45  173690
923.5  173030
923.55  174390
923.6  172190
923.65  174120
923.7  173810
923.75  175700
923.8  174280
923.85  174320
923.9  174340
923.95  172830
924  173750
924.05  173930
924.1  172980
924.15  172040
924.2  173310
924.25  171410
924.3  171850
924.35  170370
924.4  173070
924.45  172100
924.5  172890
924.55  172420
924.6  173510
924.65  173760
924.7  172880
924.75  172060
924.8  173530
924.85  174400
924.9  174530
924.95  175900
925  173540
925.05  173070
925.1  174880
925.15  171410
925.2  178380
925.25  175300
925.3  174780
925.35  174610
925.4  177900
925.45  179260
925.5  178970
925.55  175640
925.6  176600
925.65  177070
925.7  177950
925.75  177590
925.8  177630
925.85  177320
925.9  178640
925.95  182990
926  181030
926.05  178390
926.1  179320
926.15  180780
926.2  180860
926.25  180900
926.3  181570
926.35  179310
926.4  181200
926.45  178750
926.5  178160
926.55  183240
926.6  180900
926.65  182100
926.7  182220
926.75  185680
926.8  182240
926.85  184090
926.9  184290
926.95  187610
927  183810
927.05  183980
927.1  184000
927.15  185420
927.2  185570
927.25  186670
927.3  186690
927.35  188550
927.4  189300
927.45  187120
927.5  189730
927.55  191430
927.6  190710
927.65  190610
927.7  189850
927.75  192620
927.8  190320
927.85  194080
927.9  190880
927.95  192720
928  192290
928.05  195160
928.1  194920
928.15  193260
928.2  194910
928.25  195090
928.3  193180
928.35  193360
928.4  195280
928.45  194930
928.5  195260
928.55  197060
928.6  198050
928.65  198800
928.7  199590
928.75  201710
928.8  201140
928.85  202050
928.9  203660
928.95  202290
929  203240
929.05  204850
929.1  209030
929.15  208130
929.2  207840
929.25  208660
929.3  208340
929.35  211260
929.4  212090
929.45  211550
929.5  214470
929.55  216540
929.6  213650
929.65  215190
929.7  219980
929.75  218720
929.8  221210
929.85  223950
929.9  219720
929.95  224560
930  226470
930.05  223870
930.1  227090
930.15  227450
930.2  227030
930.25  231320
930.3  231620
930.35  232020
930.4  231750
930.45  234120
930.5  233490
930.55  235460
930.6  234600
930.65  236510
930.7  236450
930.75  235570
930.8  236520
930.85  236370
930.9  235310
930.95  239830
931  234270
931.05  234590
931.1  231690
931.15  237460
931.2  233210
931.25  238390
931.3  238050
931.35  237780
931.4  236650
931.45  233720
931.5  233760
931.55  235980
931.6  233530
931.65  233680
931.7  233700
931.75  235570
931.8  231640
931.85  229090
931.9  227910
931.95  232120
932  231500
932.05  232670
932.1  229500
932.15  232280
932.2  228470
932.25  228400
932.3  228450
932.35  224890
932.4  224300
932.45  221720
932.5  226290
932.55  223070
932.6  224230
932.65  223280
932.7  222450
932.75  221920
932.8  222890
932.85  220220
932.9  220480
932.95  218510
933  216870
933.05  217660
933.1  216890
933.15  217780
933.2  214630
933.25  215430
933.3  212810
933.35  213910
933.4  210290
933.45  211710
933.5  211990
933.55  206040
933.6  208180
933.65  210200
933.7  207830
933.75  205700
933.8  202440
933.85  201840
933.9  202000
933.95  199190
934  200720
934.05  198170
934.1  199530
934.15  196850
934.2  198130
934.25  198250
934.3  196440
934.35  193880
934.4  194450
934.45  195650
934.5  193520
934.55  191490
934.6  192970
934.65  190440
934.7  187980
934.75  188950
934.8  188890
934.85  185190
934.9  174990
934.95  186150
935  185610
935.05  185460
935.1  184220
935.15  182880
935.2  184890
935.25  184830
935.3  181460
935.35  182920
935.4  181100
935.45  181240
935.5  182490
935.55  181500
935.6  182540
935.65  179320
935.7  181920
935.75  178050
935.8  179420
935.85  179440
935.9  179220
935.95  178500
936  177860
936.05  178010
936.1  178790
936.15  178630
936.2  175930
936.25  176100
936.3  177000
936.35  175530
936.4  176050
936.45  176640
936.5  175890
936.55  174650
936.6  176460
936.65  173510
936.7  174450
936.75  173970
936.8  174600
936.85  173450
936.9  175350
936.95  173590
937  175910
937.05  174590
937.1  175150
937.15  173290
937.2  174640
937.25  172990
937.3  176320
937.35  172180
937.4  174970
937.45  174770
937.5  174800
937.55  174270
937.6  175350
937.65  173780
937.7  174060
937.75  175270
937.8  176220
937.85  175430
937.9  175960
937.95  172200
938  176000
938.05  173720
938.1  173120
938.15  171840
938.2  174910
938.25  173160
938.3  172360
938.35  174130
938.4  170180
938.45  169460
938.5  170660
938.55  170240
938.6  172970
938.65  169700
938.7  171730
938.75  171240
938.8  170320
938.85  171760
938.9  170210
938.95  167050
939  171070
939.05  170940
939.1  168710
939.15  167000
939.2  170870
939.25  168390
939.3  168460
939.35  169070
939.4  166270
939.45  167210
939.5  168830
939.55  167790
939.6  169130
939.65  166150
939.7  168960
939.75  167990
939.8  169590
939.85  168900
939.9  166780
939.95  169010
940  166050
940.05  167730
940.1  165500
940.15  166680
940.2  153030
940.25  168190
940.3  165400
940.35  167090
940.4  168230
940.45  164390
940.5  166570
940.55  165560
940.6  165430
940.65  164610
940.7  165650
940.75  167280
940.8  167080
940.85  165400
940.9  167500
940.95  167510
941  166060
941.05  165450
941.1  163110
941.15  164920
941.2  166530
941.25  167130
941.3  166700
941.35  163480
941.4  164000
941.45  163800
941.5  164350
941.55  163320
941.6  163580
941.65  161140
941.7  163080
941.75  159460
941.8  160490
941.85  160130
941.9  161370
941.95  162000
942  158970
942.05  160010
942.1  159850
942.15  158770
942.2  159670
942.25  158530
942.3  160440
942.35  159120
942.4  158590
942.45  157480
942.5  156910
942.55  157660
942.6  159010
942.65  157670
942.7  160470
942.75  159490
942.8  160150
942.85  159770
942.9  156720
942.95  159860
943  157130
943.05  158370
943.1  156860
943.15  161600
943.2  159840
943.25  157250
943.3  158680
943.35  160310
943.4  162170
943.45  162490
943.5  159750
943.55  158120
943.6  160860
943.65  160960
943.7  160000
943.75  159810
943.8  160580
943.85  161060
943.9  158870
943.95  160480
944  160760
944.05  162070
944.1  159930
944.15  159690
944.2  158370
944.25  159240
944.3  161310
944.35  159910
944.4  157890
944.45  158660
944.5  158260
944.55  155800
944.6  160340
944.65  159850
944.7  157870
944.75  156720
944.8  156920
944.85  156180
944.9  158680
944.95  159640
945  159210
945.05  158790
945.1  159060
945.15  158950
945.2  159660
945.25  157840
945.3  157140
945.35  157500
945.4  158540
945.45  159250
945.5  149690
945.55  156210
945.6  157630
945.65  156670
945.7  160210
945.75  158170
945.8  158180
945.85  158390
945.9  156980
945.95  155990
946  156200
946.05  156060
946.1  156210
946.15  157280
946.2  156180
946.25  157370
946.3  159120
946.35  158000
946.4  152900
946.45  158280
946.5  157680
946.55  159350
946.6  155250
946.65  155020
946.7  155140
946.75  154520
946.8  154190
946.85  156270
946.9  157420
946.95  154840
947  154530
947.05  158030
947.1  153290
947.15  155260
947.2  152480
947.25  153590
947.3  154500
947.35  156090
947.4  153570
947.45  154350
947.5  155200
947.55  154960
947.6  154620
947.65  157480
947.7  155360
947.75  155840
947.8  156800
947.85  155570
947.9  157980
947.95  156680
948  153090
948.05  156130
948.1  155660
948.15  156770
948.2  158160
948.25  156450
948.3  157240
948.35  155900
948.4  158160
948.45  157690
948.5  156490
948.55  154630
948.6  156960
948.65  157940
948.7  156980
948.75  155240
948.8  155590
948.85  153890
948.9  152550
948.95  154170
949  153990
949.05  154220
949.1  154500
949.15  152590
949.2  154400
949.25  151700
949.3  152460
949.35  152080
949.4  154350
949.45  152410
949.5  152550
949.55  153380
949.6  151420
949.65  147510
949.7  151560
949.75  151270
949.8  150820
949.85  149840
949.9  148520
949.95  149370
950  148370
950.05  147590
950.1  146020
950.15  147940
950.2  147380
950.25  146930
950.3  148210
950.35  146250
950.4  146990
950.45  148660
950.5  146380
950.55  145660
950.6  147780
950.65  147490
950.7  147740
950.75  148240
950.8  138640
950.85  149870
950.9  148490
950.95  151320
951  150270
951.05  148630
951.1  150030
951.15  151420
951.2  148210
951.25  152250
951.3  149090
951.35  150980
951.4  152090
951.45  150880
951.5  149470
951.55  153140
951.6  149060
951.65  151550
951.7  151220
951.75  149160
951.8  151970
951.85  149050
951.9  149980
951.95  150170
952  151420
952.05  150480
952.1  149040
952.15  147370
952.2  149510
952.25  148920
952.3  148460
952.35  148650
952.4  149240
952.45  148890
952.5  149930
952.55  147740
952.6  147940
952.65  146220
952.7  151240
952.75  148840
952.8  146680
952.85  146730
952.9  148150
952.95  148740
953  145530
953.05  148030
953.1  150520
953.15  148550
953.2  150290
953.25  150390
953.3  149440
953.35  148700
953.4  150210
953.45  147850
953.5  147370
953.55  148670
953.6  146550
953.65  147940
953.7  148690
953.75  149220
953.8  147300
953.85  151210
953.9  150570
953.95  148180
954  150850
954.05  147890
954.1  147620
954.15  149780
954.2  151100
954.25  149650
954.3  151980
954.35  148930
954.4  149990
954.45  150820
954.5  149600
954.55  148800
954.6  147970
954.65  149690
954.7  151150
954.75  150590
954.8  149270
954.85  148340
954.9  148160
954.95  148610
955  149580
955.05  146030
955.1  146760
955.15  147050
955.2  144410
955.25  145730
955.3  147910
955.35  148980
955.4  146960
955.45  147900
955.5  147470
955.55  146680
955.6  148160
955.65  146680
955.7  146320
955.75  147880
955.8  147150
955.85  147050
955.9  144310
955.95  145140
956  147090
956.05  144480
956.1  144320
956.15  143070
956.2  145860
956.25  143900
956.3  143330
956.35  143620
956.4  144470
956.45  143550
956.5  145020
956.55  144820
956.6  144100
956.65  144360
956.7  141860
956.75  143950
956.8  142450
956.85  142290
956.9  142000
956.95  141740
957  141150
957.05  143720
957.1  143150
957.15  142550
957.2  144850
957.25  142220
957.3  139190
957.35  141230
957.4  139580
957.45  141640
957.5  141430
957.55  140520
957.6  136410
957.65  137560
957.7  139500
957.75  138100
957.8  139410
957.85  140000
957.9  138760
957.95  140220
958  142940
958.05  140510
958.1  139880
958.15  139540
958.2  141180
958.25  139770
958.3  139900
958.35  141100
958.4  141180
958.45  142320
958.5  140950
958.55  141940
958.6  142770
958.65  141860
958.7  140630
958.75  139390
958.8  142850
958.85  143520
958.9  143860
958.95  143530
959  144640
959.05  142680
959.1  143590
959.15  144640
959.2  143900
959.25  145430
959.3  144180
959.35  144540
959.4  143210
959.45  141820
959.5  143360
959.55  142900
959.6  141560
959.65  144240
959.7  143570
959.75  145540
959.8  143900
959.85  144240
959.9  143180
959.95  142740
960  142020

# External Channel Data Cycle: 0, Excitation Energy [eV] (BElChem-PGM)
#
# ColumnLabels: energy Excitation Energy [eV] (BElChem-PGM)
#
920 920.0080733547386
920.05 920.0544978943658
920.1 920.1091209985935
920.15 920.1774090003303
920.2 920.224533631801
920.25 920.2661985578189
920.3 920.3140154172187
920.35 920.3618372459869
920.4 920.4000982874669
920.45 920.4684294887261
920.5 920.5162673667438
920.55 920.5545412494254
920.6 920.61879385097
920.65 920.6591271933406
920.7 920.7015151920203
920.75 920.7651045089804
920.8 920.8088700016561
920.85 920.8656345719064
920.9 920.9039375131838
920.95 920.9723435485115
921 921.0127078763278
921.05 921.0523915118692
921.1 921.1030273223474
921.15 921.1509311864817
921.2 921.208422400989
921.25 921.2666053401614
921.3 921.3063108585287
921.35 921.3631367781335
921.4 921.4151762987844
921.45 921.4501008521523
921.5 921.508314324809
921.55 921.5507805560777
921.6 921.6103768676131
921.65 921.6638145971446
921.7 921.7049247599916
921.75 921.7748204541061
921.8 921.8036041153351
921.85 921.8529517170206
921.9 921.9208132969773
921.95 921.957832915549
922 922.0010262283134
922.05 922.0599950618899
922.1 922.1175998096031
922.15 922.153263498618
922.2 922.210193949086
922.25 922.2513528691984
922.3 922.3179008947619
922.35 922.365245026964
922.4 922.4201428593747
922.45 922.4578889100519
922.5 922.5148569808649
922.55 922.5677131699882
922.6 922.6047847602039
922.65 922.6700105301933
922.7 922.7125839012333
922.75 922.7565347279643
922.8 922.8142265424678
922.85 922.8705517010887
922.9 922.9000908129996
922.95 922.9529911571356
923 923.0120818279748
923.05 923.0567484023132
923.1 923.1055429853303
923.15 923.1632784502585
923.2 923.2258333544312
923.25 923.2691455621971
923.3 923.3152122107571
923.35 923.3619711219081
923.4 923.4142366862494
923.45 923.4665081677585
923.5 923.5236008887808
923.55 923.563501197433
923.6 923.622670070599
923.65 923.6584502766484
923.7 923.7169431216063
923.75 923.750665892803
923.8 923.820183863579
923.85 923.8511605864816
923.9 923.9200051865325
923.95 923.9792197494356
924 924.0157162255421
924.05 924.0680558267658
924.1 924.1059368680902
924.15 924.1617309661848
924.2 924.2120203084129
924.25 924.2630041321296
924.3 924.3084809370697
924.35 924.3615428660041
924.4 924.4146108875582
924.45 924.451831057327
924.5 924.522144000692
924.55 924.5600622815076
924.6 924.6076368872856
924.65 924.6593539687842
924.7 924.7152149154634
924.75 924.7538387755299
924.8 924.8055722141166
924.85 924.8662801626776
924.9 924.9014668265058
924.95 924.959427168466
925 925.0173947752257
925.05 925.0574242680858
925.1 925.110572223756
925.15 925.1685587773089
925.2 925.2106726166267
925.25 925.2624571825162
925.3 925.3163192806691
925.35 925.3556840105831
925.4 925.4233715517066
925.45 925.4655085929942
925.5 925.5152490549586
925.55 925.5684496325996
925.6 925.6016167238646
925.65 925.6589737616991
925.7 925.7128820357519
925.75 925.7730179032907
925.8 925.8117301811909
925.85 925.8704960757517
925.9 925.9099079722758
925.95 925.9569300626966
926 926.0101814314351
926.05 926.0668974160943
926.1 926.1001002406672
926.15 926.1658211839546
926.2 926.2059501354
926.25 926.2682260829936
926.3 926.3228974280812
926.35 926.3540422187205
926.4 926.4114925489117
926.45 926.450950517496
926.5 926.5028740184547
926.55 926.557573067228
926.6 926.614356126708
926.65 926.6524462249062
926.7 926.7230943329661
926.75 926.7875181736974
926.8 926.8214655208501
926.85 926.8706589467466
926.9 926.903919432842
926.95 926.9600519163595
927 927.0113393875863
927.05 927.0577802369531
927.1 927.111851565485
927.15 927.1506758964779
927.2 927.2172394581072
927.25 927.2560726163684
927.3 927.3184898643923
927.35 927.366348778937
927.4 927.4156000655257
927.45 927.4558373933382
927.5 927.5120367461136
927.55 927.5564459899033
927.6 927.6105755058738
927.65 927.6806756767878
927.7 927.7153826526603
927.75 927.7764732381044
927.8 927.8104930742116
927.85 927.8695129936948
927.9 927.9056229994169
927.95 927.9604878099894
928 928.021610681389
928.05 928.0577325267186
928.1 928.1167839062064
928.15 928.1661149365397
928.2 928.2244851817079
928.25 928.2599278410796
928.3 928.3148345592638
928.35 928.3732235117933
928.4 928.4156296169274
928.45 928.4601254329308
928.5 928.510883680246
928.55 928.5679064124263
928.6 928.615198868743
928.65 928.6736256130773
928.7 928.7230158569644
928.75 928.7932842708344
928.8 928.8190288262655
928.85 928.8670427557893
928.9 928.9087980340593
928.95 928.9547331762899
929 929.0104182277023
929.05 929.059844302753
929.1 929.1287711309983
929.15 929.1802988743498
929.2 929.2381003060129
929.25 929.2673519635141
929.3 929.3133225749147
929.35 929.357207856165
929.4 929.418514870337
929.45 929.456835861802
929.5 929.5153685659428
929.55 929.5759994961658
929.6 929.6108484376803
929.65 929.669400541976
929.7 929.7035593424961
929.75 929.759334207718
929.8 929.8109319164413
929.85 929.8681144453119
929.9 929.9001955288616
929.95 929.9566915136668
930 930.0159848058082
930.05 930.0571457719778
930.1 930.1213362440828
930.15 930.1632043693216
930.2 930.2001910153749
930.25 930.2706831455548
930.3 930.3160550186799
930.35 930.3516575870814
930.4 930.4005282945242
930.45 930.4514989302199
930.5 930.508061925676
930.55 930.5681239914437
930.6 930.6023488686114
930.65 930.6652174467857
930.7 930.7155184256297
930.75 930.7518502920605
930.8 930.8301131777998
930.85 930.8678517719894
930.9 930.9027976433152
930.95 930.9517262714173
931 931.0146420657334
931.05 931.0579890046099
931.1 931.1013399800387
931.15 931.1824590997475
931.2 931.2195268503204
931.25 931.2537996603495
931.3 931.3034647389238
931.35 931.3503366433022
931.4 931.4140060399357
931.45 931.4594895103581
931.5 931.5028778832362
931.55 931.5735675987592
931.6 931.6183666354083
931.65 931.6624698955878
931.7 931.7100781007532
931.75 931.7765977114461
931.8 931.8186149912592
931.85 931.8627372136317
931.9 931.9257762086696
931.95 931.9727107766273
932 932.0322614351962
932.05 932.0707982697363
932.1 932.1233536346529
932.15 932.1625988387085
932.2 932.2102581723499
932.25 932.2740451999831
932.3 932.304890410176
932.35 932.3581733083067
932.4 932.4016454468199
932.45 932.4647573779368
932.5 932.5250723174839
932.55 932.5692614692389
932.6 932.6064397136233
932.65 932.659757086482
932.7 932.7130805560278
932.75 932.753077159767
932.8 932.8092185300519
932.85 932.8653666589167
932.9 932.9278393956266
932.95 932.9657482809425
933 933.0170003755117
933.05 933.052107799275
933.1 933.1195214595842
933.15 933.1602552668161
933.2 933.2143384024349
933.25 933.2642128233249
933.3 933.3000414016335
933.35 933.3717068117691
933.4 933.40754364423
933.45 933.4771171165744
933.5 933.5115563088177
933.55 933.5628683900619
933.6 933.6071559540454
933.65 933.6774623036298
933.7 933.7034783368325
933.75 933.7752057202505
933.8 933.812480182207
933.85 933.8504609966203
933.9 933.9116588077554
933.95 933.9630148842906
934 934.0150802338045
934.05 934.0572996437323
934.1 934.1016341321921
934.15 934.1607533306309
934.2 934.2128407296224
934.25 934.2522620820196
934.3 934.3163288759273
934.35 934.35223828407
934.4 934.4092765471902
934.45 934.4705476241081
934.5 934.5029470732773
934.55 934.5592992929612
934.6 934.6128401970775
934.65 934.6593412226595
934.7 934.7234638619387
934.75 934.7586998266706
934.8 934.8164925601016
934.85 934.8531453134907
934.9 934.9123596793445
934.95 934.9645309312751
935 935.0160028717688
935.05 935.0597232173159
935.1 935.116847893721
935.15 935.1577562714443
935.2 935.2219473191925
935.25 935.2536934014747
935.3 935.3214255808216
935.35 935.3708198133697
935.4 935.4082217742422
935.45 935.4675064811992
935.5 935.5070337942045
935.55 935.5691548925919
935.6 935.6023365864738
935.65 935.6567031719774
935.7 935.7110760761856
935.75 935.756273948782
935.8 935.8170154663412
935.85 935.8544531198105
935.9 935.9159138757352
935.95 935.9519463480401
936 936.0056469451384
936.05 936.0586469968705
936.1 936.1052920075895
936.15 936.1646651087108
936.2 936.2007167376206
936.25 936.2721212958746
936.3 936.3159591925815
936.35 936.3633370188444
936.4 936.4064762247147
936.45 936.4517413040538
936.5 936.5146953296723
936.55 936.5514813746091
936.6 936.6002980882615
936.65 936.6703483496642
936.7 936.7078543113302
936.75 936.7708427777877
936.8 936.832423961476
936.85 936.8720667077229
936.9 936.9350772616255
936.95 936.9633993724569
937 937.0073020282739
937.05 937.0653731505722
937.1 937.1064521931833
937.15 937.1808285882524
937.2 937.2183754429674
937.25 937.2623019970758
937.3 937.309775644539
937.35 937.3664668965522
937.4 937.4026111492504
937.45 937.4635665948357
937.5 937.5231121253779
937.55 937.5606864118848
937.6 937.6060631497432
937.65 937.670590762166
937.7 937.7060492751517
937.75 937.7564049716482
937.8 937.8117315490457
937.85 937.8684835386946
937.9 937.9039570203846
937.95 937.9600105912168
938 938.0139418690335
938.05 938.0565235746915
938.1 938.122532859269
938.15 938.1551860469515
938.2 938.2119796139976
938.25 938.266649916983
938.3 938.3000232334446
938.35 938.3504427457807
938.4 938.4164934033803
938.45 938.4875259914601
938.5 938.5173628852478
938.55 938.5614112912688
938.6 938.6061743909639
938.65 938.6722610567309
938.7 938.7021096982521
938.75 938.755415565634
938.8 938.822234135674
938.85 938.8627564121495
938.9 938.9160805268291
938.95 938.967277375889
939 939.018479808537
939.05 939.0547515770929
939.1 939.1265921733544
939.15 939.1607380923524
939.2 939.2034239830315
939.25 939.2674600949993
939.3 939.3108673138128
939.35 939.3656657615284
939.4 939.4005408300961
939.45 939.4560615876552
939.5 939.5172843893763
939.55 939.5706828818778
939.6 939.6077093999994
939.65 939.6696641390887
939.7 939.7017128998029
939.75 939.7501462861509
939.8 939.808557892742
939.85 939.86697676111
939.9 939.9040266360198
939.95 939.9588943162407
940 940.0208953775422
940.05 940.0551063610391
940.1 940.1263872417735
940.15 940.1641704916242
940.2 940.2097995961134
940.25 940.2661291301129
940.3 940.3024973512711
940.35 940.3631173054869
940.4 940.4166119916837
940.45 940.461552231832
940.5 940.5015027179395
940.55 940.5642889113102
940.6 940.6228017734509
940.65 940.6591975916064
940.7 940.7070159864642
940.75 940.7762542179069
940.8 940.8076646110441
940.85 940.8569260422831
940.9 940.9111909806754
940.95 940.9697470139387
941 941.0297388007024
941.05 941.0711661657102
941.1 941.1168833534738
941.15 941.153317417724
941.2 941.2133326146812
941.25 941.255490722141
941.3 941.3105163061014
941.35 941.3619746209966
941.4 941.4177274780845
941.45 941.4556145980612
941.5 941.521388161142
941.55 941.5578535524403
941.6 941.6157749799121
941.65 941.6622602918155
941.7 941.7244862771787
941.75 941.7666901885062
941.8 941.8017437700253
941.85 941.8511093605308
941.9 941.9219472912504
941.95 941.9706098211395
942 942.0171301751993
942.05 942.0658025407095
942.1 942.1230705869032
942.15 942.1552869227426
942.2 942.2018255200437
942.25 942.2540974262554
942.3 942.3135369141237
942.35 942.3536449018649
942.4 942.4145296221806
942.45 942.4517806240735
942.5 942.5126780264012
942.55 942.5785993782752
942.6 942.6187299335444
942.65 942.6746317589426
942.7 942.7104697499751
942.75 942.7520452335166
942.8 942.8194339779031
942.85 942.850980955792
942.9 942.911212867202
942.95 942.972169659209
943 943.0044440928856
943.05 943.0639782885168
943.1 943.1012806508834
943.15 943.1644144486806
943.2 943.2261215546949
943.25 943.2921427473678
943.3 943.3323340855588
943.35 943.3890384046176
943.4 943.4256486114662
943.45 943.4859539702976
943.5 943.5254437986899
943.55 943.5785807840155
943.6 943.6073059708251
943.65 943.6647615916166
943.7 943.7092945104912
943.75 943.7538316327111
943.8 943.8113050991317
943.85 943.8659113764759
943.9 943.9011214056777
943.95 943.9564567593967
944 944.0175487753621
944.05 944.0534889493633
944.1 944.1088421698681
944.15 944.1685158983153
944.2 944.2066247558267
944.25 944.2648725385064
944.3 944.3015507554229
944.35 944.3554944862434
944.4 944.4173575500528
944.45 944.4626809847122
944.5 944.5094478183629
944.55 944.5626956978842
944.6 944.6159495815733
944.65 944.6634513550785
944.7 944.7152769205683
944.75 944.7692679317515
944.8 944.8002255616179
944.85 944.8542262832407
944.9 944.9003117805174
944.95 944.9708889114152
945 945.0141046034895
945.05 945.0594853344716
945.1 945.1163974902445
945.15 945.1517008794076
945.2 945.2187125247484
945.25 945.2684369829905
945.3 945.3167251592183
945.35 945.3686224305007
945.4 945.4025028899441
945.45 945.4724340697007
945.5 945.5178588314965
945.55 945.5560766943429
945.6 945.610885059356
945.65 945.6527167707652
945.7 945.7169140081525
945.75 945.7717410208919
945.8 945.8042073801937
945.85 945.8640956237545
945.9 945.9030631317946
945.95 945.9687378639294
946 946.0069921852944
946.05 946.0661842133375
946.1 946.1203297495744
946.15 946.1549861454623
946.2 946.2149188212326
946.25 946.2531930563664
946.3 946.3080822690466
946.35 946.387538461421
946.4 946.4251042154092
946.45 946.4619504479471
946.5 946.5103606433729
946.55 946.5623890606236
946.6 946.6057504445413
946.65 946.6679086899123
946.7 946.7062195812888
946.75 946.7604384057887
946.8 946.815386483409
946.85 946.868894687925
946.9 946.9043291246742
946.95 946.970142972474
947 947.0113716911495
947.05 947.0554976301506
947.1 947.1097564701927
947.15 947.1560622635628
947.2 947.2153981789761
947.25 947.2624380285573
947.3 947.3203396422188
947.35 947.3920026897126
947.4 947.4282002689814
947.45 947.4745372068569
947.5 947.515085745728
947.55 947.5860540406687
947.6 947.6331307127947
947.65 947.6990459126813
947.7 947.7338180639616
947.75 947.7830829797806
947.8 947.8156875785963
947.85 947.8664103024765
947.9 947.9156890043861
947.95 947.9685968434751
948 948.0041136373194
948.05 948.0679055818473
948.1 948.1041548297898
948.15 948.1607091919802
948.2 948.221621435591
948.25 948.2600581877364
948.3 948.3173564894948
948.35 948.352899422043
948.4 948.4160128266617
948.45 948.4580930968721
948.5 948.5233974611533
948.55 948.5647615433579
948.6 948.6184676640667
948.65 948.6511297651865
948.7 948.701216022233
948.75 948.7505815661883
948.8 948.8231872878268
948.85 948.8667560551513
948.9 948.901613950014
948.95 948.9597161331407
949 949.0301745748532
949.05 949.0694033958038
949.1 949.1093620102853
949.15 949.168942920137
949.2 949.2030963264999
949.25 949.2728641134615
949.3 949.3157473212876
949.35 949.3579074717836
949.4 949.4000713672025
949.45 949.4662326135617
949.5 949.5178593309643
949.55 949.5593101953506
949.6 949.6109470356118
949.65 949.6735005890255
949.7 949.7171474837724
949.75 949.7637085938492
949.8 949.8008152471594
949.85 949.8626661130204
949.9 949.901963788813
949.95 949.9521822178531
950 950.0111410624005
950.05 950.0810276891859
950.1 950.1181591420262
950.15 950.1589342766647
950.2 950.2179187889619
950.25 950.2579741757571
950.3 950.3016748129621
950.35 950.362133987429
950.4 950.4043871335685
950.45 950.4728743499164
950.5 950.5107651357408
950.55 950.5683357650018
950.6 950.6237267498874
950.65 950.6849558757112
950.7 950.724321621835
950.75 950.7833763540798
950.8 950.8161877088322
950.85 950.875983112137
950.9 950.9146353622601
950.95 950.9678785122211
951 951.0225865885707
951.05 951.0554144558848
951.1 951.1152399531439
951.15 951.1575600935628
951.2 951.215209102138
951.25 951.2655664854173
951.3 951.3210387597493
951.35 951.3560772138912
951.4 951.4210511776098
951.45 951.4619382207857
951.5 951.530577944095
951.55 951.5678227894149
951.6 951.6109136011689
951.65 951.6722699653976
951.7 951.7204840881282
951.75 951.757013191186
951.8 951.816196289441
951.85 951.8688096673026
951.9 951.9236214547855
951.95 951.9806324104602
952 952.0252226601582
952.05 952.0785902531621
952.1 952.1173403368927
952.15 952.1677932857497
952.2 952.220445542197
952.25 952.2540875324881
952.3 952.3162583347863
952.35 952.36234310909
952.4 952.408432343906
952.45 952.4567210890729
952.5 952.5086735399412
952.55 952.5642908947865
952.6 952.616987012029
952.65 952.6535849682895
952.7 952.7106833955233
952.75 952.7685208310119
952.8 952.8007371311365
952.85 952.8571208991195
952.9 952.9157085060071
952.95 952.9647811707122
953 953.0211843561677
953.05 953.0658721391898
953.1 953.103969951885
953.15 953.1662517816479
953.2 953.2131517077753
953.25 953.2739819239358
953.3 953.3069654074751
953.35 953.3531461191673
953.4 953.4095952877125
953.45 953.4616517438644
953.5 953.5173804471794
953.55 953.5716488656823
953.6 953.6200556400333
953.65 953.6589313047558
953.7 953.7176175567879
953.75 953.7565011765773
953.8 953.8115305850838
953.85 953.8717033389751
953.9 953.9061960233983
953.95 953.9685827457473
954 954.0045505644346
954.05 954.056672012115
954.1 954.1146729933533
954.15 954.177821319811
954.2 954.222617642124
954.25 954.2769663682376
954.3 954.3173647025499
954.35 954.3812745072379
954.4 954.4224163812015
954.45 954.4628270316667
954.5 954.5120591749503
954.55 954.5686456722133
954.6 954.6046587547601
954.65 954.6737526834361
954.7 954.7208010817437
954.75 954.7538847635027
954.8 954.802411644525
954.85 954.8502080913814
954.9 954.9112474343126
954.95 954.9612613868569
955 955.0134874284225
955.05 955.0561551947792
955.1 955.1113346834982
955.15 955.1643129916542
955.2 955.2018428493285
955.25 955.2666071860588
955.3 955.3070893564495
955.35 955.3505194993327
955.4 955.4153039993834
955.45 955.4675797165445
955.5 955.5147063923579
955.55 955.5714118357934
955.6 955.6347531451315
955.65 955.6752665246845
955.7 955.7459890183164
955.75 955.7894590777618
955.8 955.8461971374935
955.85 955.881569726159
955.9 955.9361075965713
955.95 955.9729610322119
956 956.0164517412505
956.05 956.0658442941447
956.1 956.1041823306458
956.15 956.1624325395661
956.2 956.2007783229499
956.25 956.270103506255
956.3 956.3114083937788
956.35 956.3527168496823
956.4 956.4036196763395
956.45 956.4596928294206
956.5 956.5179863663435
956.55 956.5770250377277
956.6 956.6161421712236
956.65 956.6759311414439
956.7 956.7135798830037
956.75 956.7586146226727
956.8 956.8095606682774
956.85 956.8582967455736
956.9 956.9181159901269
956.95 956.9639086137695
957 957.0074895352597
957.05 957.0518131875341
957.1 957.1153509161297
957.15 957.1619013503873
957.2 957.2188024751882
957.25 957.2572330360567
957.3 957.3222764001652
957.35 957.3651507230956
957.4 957.4006358256968
957.45 957.4583047282055
957.5 957.5145016237337
957.55 957.555914083962
957.6 957.6128620661424
957.65 957.6646388373092
957.7 957.7156814201946
957.75 957.7519323555811
957.8 957.8111234543676
957.85 957.8725419528095
957.9 957.908064679373
957.95 957.9694956113239
958 958.0065059998918
958.05 958.0775739629423
958.1 958.1205159670982
958.15 958.1567975566987
958.2 958.2160387106646
958.25 958.250105691415
958.3 958.3041734812813
958.35 958.3656552305199
958.4 958.4086230633241
958.45 958.4515947491822
958.5 958.5234698011274
958.55 958.5642284858095
958.6 958.615367010781
958.65 958.6539097946674
958.7 958.7139537671034
958.75 958.7510217022312
958.8 958.8266491787456
958.85 958.8800404636929
958.9 958.9282460365707
958.95 958.9593968307004
959 959.0105775292284
959.05 959.0632474295385
959.1 959.122600728407
959.15 959.1567322019002
959.2 959.2250024370505
959.25 959.27324270144
959.3 959.3348488623474
959.35 959.3727071753948
959.4 959.4202198744391
959.45 959.4647673040953
959.5 959.5026358720045
959.55 959.5657567950145
959.6 959.6184876967467
959.65 959.6533972564357
959.7 959.7261955721584
959.75 959.7692854925596
959.8 959.8190665966838
959.85 959.8502752952688
959.9 959.9216170850597
959.95 959.9781035235674
960 960.010809237097

# External Channel Data Cycle: 0, Ring Current [mA] (BElChem-PGM)
#
# ColumnLabels: energy Ring Current [mA] (BElChem-PGM)
#
920 296.969139
920.05 296.969139
920.1 296.969139
920.15 296.957881
920.2 296.957881
920.25 296.957881
920.3 296.957881
920.35 296.94641
920.4 296.94641
920.45 296.94641
920.5 296.934526
920.55 296.934526
920.6 296.934526
920.65 296.934526
920.7 296.923118
920.75 296.923118
920.8 296.923118
920.85 296.913301
920.9 296.913301
920.95 296.913301
921 296.913301
921.05 296.90189
921.1 296.90189
921.15 296.90189
921.2 296.890473
921.25 296.890473
921.3 296.890473
921.35 296.890473
921.4 296.88008
921.45 296.88008
921.5 296.88008
921.55 296.8688
921.6 296.8688
921.65 296.8688
921.7 296.85774
921.75 296.85774
921.8 296.85774
921.85 296.85774
921.9 296.848542
921.95 296.848542
922 296.848542
922.05 296.837484
922.1 296.837484
922.15 296.837484
922.2 296.837484
922.25 296.826001
922.3 296.826001
922.35 296.826001
922.4 296.816709
922.45 296.816709
922.5 296.816709
922.55 296.816709
922.6 296.805766
922.65 296.805766
922.7 296.805766
922.75 296.805766
922.8 296.794692
922.85 296.794692
922.9 296.794692
922.95 296.783741
923 296.783741
923.05 296.783741
923.1 296.783741
923.15 296.773714
923.2 296.773714
923.25 296.773714
923.3 296.760058
923.35 296.760058
923.4 296.760058
923.45 296.760058
923.5 296.749932
923.55 296.749932
923.6 296.749932
923.65 296.740756
923.7 296.740756
923.75 296.740756
923.8 296.740756
923.85 296.727423
923.9 296.727423
923.95 296.727423
924 296.718024
924.05 296.718024
924.1 296.718024
924.15 296.718024
924.2 296.705942
924.25 296.705942
924.3 296.705942
924.35 296.697535
924.4 296.697535
924.45 296.697535
924.5 296.697535
924.55 296.686645
924.6 296.686645
924.65 296.686645
924.7 296.676156
924.75 296.676156
924.8 296.676156
924.85 296.676156
924.9 296.66387
924.95 296.66387
925 296.66387
925.05 296.651759
925.1 296.651759
925.15 296.651759
925.2 296.651759
925.25 296.639979
925.3 296.639979
925.35 296.639979
925.4 296.631625
925.45 296.631625
925.5 296.631625
925.55 296.631625
925.6 296.621468
925.65 296.621468
925.7 296.621468
925.75 296.610399
925.8 296.610399
925.85 296.610399
925.9 296.610399
925.95 296.596398
926 296.596398
926.05 296.596398
926.1 296.58908
926.15 296.58908
926.2 296.58908
926.25 296.58908
926.3 296.577848
926.35 296.577848
926.4 296.577848
926.45 296.56547
926.5 296.56547
926.55 296.56547
926.6 296.56547
926.65 296.556921
926.7 296.556921
926.75 296.556921
926.8 296.545607
926.85 296.545607
926.9 296.545607
926.95 296.545607
927 296.534066
927.05 296.534066
927.1 296.534066
927.15 296.523537
927.2 296.523537
927.25 296.523537
927.3 296.523537
927.35 296.510037
927.4 296.510037
927.45 296.510037
927.5 296.510037
927.55 296.499229
927.6 296.499229
927.65 296.499229
927.7 296.491029
927.75 296.491029
927.8 296.491029
927.85 296.480364
927.9 296.480364
927.95 296.480364
928 296.480364
928.05 296.468934
928.1 296.468934
928.15 296.468934
928.2 296.785036
928.25 296.785036
928.3 296.785036
928.35 296.785036
928.4 296.778105
928.45 296.778105
928.5 296.778105
928.55 296.766128
928.6 296.766128
928.65 296.766128
928.7 296.766128
928.75 296.756476
928.8 296.756476
928.85 296.756476
928.9 296.744875
928.95 296.744875
929 296.744875
929.05 296.732824
929.1 296.732824
929.15 296.732824
929.2 296.732824
929.25 296.723533
929.3 296.723533
929.35 296.723533
929.4 296.723533
929.45 296.713404
929.5 296.713404
929.55 296.713404
929.6 296.702286
929.65 296.702286
929.7 296.702286
929.75 296.702286
929.8 296.692229
929.85 296.692229
929.9 296.692229
929.95 296.680303
930 296.680303
930.05 296.680303
930.1 296.680303
930.15 296.669648
930.2 296.669648
930.25 296.669648
930.3 296.658404
930.35 296.658404
930.4 296.658404
930.45 296.658404
930.5 296.647733
930.55 296.647733
930.6 296.647733
930.65 296.636551
930.7 296.636551
930.75 296.636551
930.8 296.636551
930.85 296.626502
930.9 296.626502
930.95 296.626502
931 296.626502
931.05 296.615988
931.1 296.615988
931.15 296.615988
931.2 296.604203
931.25 296.604203
931.3 296.604203
931.35 296.604203
931.4 296.593343
931.45 296.593343
931.5 296.593343
931.55 296.584134
931.6 296.584134
931.65 296.584134
931.7 296.584134
931.75 296.57099
931.8 296.57099
931.85 296.57099
931.9 296.56044
931.95 296.56044
932 296.56044
932.05 296.549833
932.1 296.549833
932.15 296.549833
932.2 296.549833
932.25 296.539985
932.3 296.539985
932.35 296.539985
932.4 296.529365
932.45 296.529365
932.5 296.529365
932.55 296.529365
932.6 296.519573
932.65 296.519573
932.7 296.519573
932.75 296.519573
932.8 296.509778
932.85 296.509778
932.9 296.509778
932.95 296.498109
933 296.498109
933.05 296.498109
933.1 296.485949
933.15 296.485949
933.2 296.485949
933.25 296.485949
933.3 296.478141
933.35 296.478141
933.4 296.478141
933.45 296.463419
933.5 296.463419
933.55 296.463419
933.6 296.463419
933.65 296.455037
933.7 296.455037
933.75 296.455037
933.8 296.455037
933.85 296.443996
933.9 296.443996
933.95 296.443996
934 296.431441
934.05 296.431441
934.1 296.431441
934.15 296.431441
934.2 296.421939
934.25 296.421939
934.3 296.421939
934.35 296.421939
934.4 296.41073
934.45 296.41073
934.5 296.41073
934.55 296.399468
934.6 296.399468
934.65 296.399468
934.7 296.388422
934.75 296.388422
934.8 296.388422
934.85 296.388422
934.9 296.377957
934.95 296.377957
935 296.377957
935.05 296.367179
935.1 296.367179
935.15 296.367179
935.2 296.367179
935.25 296.685327
935.3 296.685327
935.35 296.685327
935.4 296.675523
935.45 296.675523
935.5 296.675523
935.55 296.675523
935.6 296.664601
935.65 296.664601
935.7 296.664601
935.75 296.654491
935.8 296.654491
935.85 296.654491
935.9 296.654491
935.95 296.640403
936 296.640403
936.05 296.640403
936.1 296.631882
936.15 296.631882
936.2 296.631882
936.25 296.631882
936.3 296.620161
936.35 296.620161
936.4 296.620161
936.45 296.620161
936.5 296.610966
936.55 296.610966
936.6 296.610966
936.65 296.599214
936.7 296.599214
936.75 296.599214
936.8 296.587818
936.85 296.587818
936.9 296.587818
936.95 296.587818
937 296.576149
937.05 296.576149
937.1 296.576149
937.15 296.564841
937.2 296.564841
937.25 296.564841
937.3 296.564841
937.35 296.554567
937.4 296.554567
937.45 296.554567
937.5 296.543827
937.55 296.543827
937.6 296.543827
937.65 296.543827
937.7 296.53278
937.75 296.53278
937.8 296.53278
937.85 296.53278
937.9 296.523337
937.95 296.523337
938 296.523337
938.05 296.511409
938.1 296.511409
938.15 296.511409
938.2 296.511409
938.25 296.499903
938.3 296.499903
938.35 296.499903
938.4 296.489633
938.45 296.489633
938.5 296.489633
938.55 296.489633
938.6 296.477728
938.65 296.477728
938.7 296.477728
938.75 296.477728
938.8 296.469365
938.85 296.469365
938.9 296.469365
938.95 296.455627
939 296.455627
939.05 296.455627
939.1 296.455627
939.15 296.447423
939.2 296.447423
939.25 296.447423
939.3 296.435373
939.35 296.435373
939.4 296.435373
939.45 296.435373
939.5 296.423807
939.55 296.423807
939.6 296.423807
939.65 296.414401
939.7 296.414401
939.75 296.414401
939.8 296.414401
939.85 296.403434
939.9 296.403434
939.95 296.403434
940 296.39293
940.05 296.39293
940.1 296.39293
940.15 296.382643
940.2 296.382643
940.25 296.382643
940.3 296.382643
940.35 296.372975
940.4 296.372975
940.45 296.372975
940.5 296.372975
940.55 296.683765
940.6 296.683765
940.65 296.683765
940.7 296.673204
940.75 296.673204
940.8 296.673204
940.85 296.673204
940.9 296.662753
940.95 296.662753
941 296.662753
941.05 296.651465
941.1 296.651465
941.15 296.651465
941.2 296.651465
941.25 296.642336
941.3 296.642336
941.35 296.642336
941.4 296.642336
941.45 296.631962
941.5 296.631962
941.55 296.631962
941.6 296.619608
941.65 296.619608
941.7 296.619608
941.75 296.609962
941.8 296.609962
941.85 296.609962
941.9 296.609962
941.95 296.600895
942 296.600895
942.05 296.600895
942.1 296.591033
942.15 296.591033
942.2 296.591033
942.25 296.591033
942.3 296.57795
942.35 296.57795
942.4 296.57795
942.45 296.57795
942.5 296.567058
942.55 296.567058
942.6 296.567058
942.65 296.555042
942.7 296.555042
942.75 296.555042
942.8 296.544917
942.85 296.544917
942.9 296.544917
942.95 296.544917
943 296.533559
943.05 296.533559
943.1 296.533559
943.15 296.523937
943.2 296.523937
943.25 296.523937
943.3 296.523937
943.35 296.511836
943.4 296.511836
943.45 296.511836
943.5 296.511836
943.55 296.501684
943.6 296.501684
943.65 296.501684
943.7 296.491474
943.75 296.491474
943.8 296.491474
943.85 296.491474
943.9 296.478422
943.95 296.478422
944 296.478422
944.05 296.468472
944.1 296.468472
944.15 296.468472
944.2 296.468472
944.25 296.458493
944.3 296.458493
944.35 296.458493
944.4 296.446192
944.45 296.446192
944.5 296.446192
944.55 296.446192
944.6 296.43455
944.65 296.43455
944.7 296.43455
944.75 296.424088
944.8 296.424088
944.85 296.424088
944.9 296.424088
944.95 296.414661
945 296.414661
945.05 296.414661
945.1 296.414661
945.15 296.403185
945.2 296.403185
945.25 296.403185
945.3 296.393062
945.35 296.393062
945.4 296.393062
945.45 296.383586
945.5 296.383586
945.55 296.383586
945.6 296.383586
945.65 296.372514
945.7 296.372514
945.75 296.372514
945.8 296.372514
945.85 296.684252
945.9 296.684252
945.95 296.684252
946 296.674323
946.05 296.674323
946.1 296.674323
946.15 296.674323
946.2 296.662168
946.25 296.662168
946.3 296.662168
946.35 296.652915
946.4 296.652915
946.45 296.652915
946.5 296.652915
946.55 296.641194
946.6 296.641194
946.65 296.641194
946.7 296.641194
946.75 296.63125
946.8 296.63125
946.85 296.63125
946.9 296.62137
946.95 296.62137
947 296.62137
947.05 296.62137
947.1 296.60921
947.15 296.60921
947.2 296.60921
947.25 296.598674
947.3 296.598674
947.35 296.598674
947.4 296.585483
947.45 296.585483
947.5 296.585483
947.55 296.585483
947.6 296.574076
947.65 296.574076
947.7 296.574076
947.75 296.565194
947.8 296.565194
947.85 296.565194
947.9 296.565194
947.95 296.552515
948 296.552515
948.05 296.552515
948.1 296.552515
948.15 296.541593
948.2 296.541593
948.25 296.541593
948.3 296.530827
948.35 296.530827
948.4 296.530827
948.45 296.530827
948.5 296.521138
948.55 296.521138
948.6 296.521138
948.65 296.521138
948.7 296.510972
948.75 296.510972
948.8 296.510972
948.85 296.500085
948.9 296.500085
948.95 296.500085
949 296.500085
949.05 296.488691
949.1 296.488691
949.15 296.488691
949.2 296.488691
949.25 296.47759
949.3 296.47759
949.35 296.47759
949.4 296.465192
949.45 296.465192
949.5 296.465192
949.55 296.453958
949.6 296.453958
949.65 296.453958
949.7 296.453958
949.75 296.442632
949.8 296.442632
949.85 296.442632
949.9 296.4333
949.95 296.4333
950 296.4333
950.05 296.4333
950.1 296.421682
950.15 296.421682
950.2 296.421682
950.25 296.421682
950.3 296.412373
950.35 296.412373
950.4 296.412373
950.45 296.40022
950.5 296.40022
950.55 296.40022
950.6 296.391414
950.65 296.391414
950.7 296.391414
950.75 296.378226
950.8 296.378226
950.85 296.378226
950.9 296.378226
950.95 296.36929
951 296.36929
951.05 296.36929
951.1 296.36929
951.15 297.886136
951.2 297.886136
951.25 297.886136
951.3 297.876626
951.35 297.876626
951.4 297.876626
951.45 297.876626
951.5 297.865157
951.55 297.865157
951.6 297.865157
951.65 297.865157
951.7 297.855598
951.75 297.855598
951.8 297.855598
951.85 297.843273
951.9 297.843273
951.95 297.843273
952 297.843273
952.05 297.832682
952.1 297.832682
952.15 297.832682
952.2 297.821696
952.25 297.821696
952.3 297.821696
952.35 297.821696
952.4 297.811664
952.45 297.811664
952.5 297.811664
952.55 297.811664
952.6 297.799801
952.65 297.799801
952.7 297.799801
952.75 297.788911
952.8 297.788911
952.85 297.788911
952.9 297.77812
952.95 297.77812
953 297.77812
953.05 297.77812
953.1 297.76701
953.15 297.76701
953.2 297.76701
953.25 297.76701
953.3 297.755679
953.35 297.755679
953.4 297.755679
953.45 297.743533
953.5 297.743533
953.55 297.743533
953.6 297.730919
953.65 297.730919
953.7 297.730919
953.75 297.730919
953.8 297.720287
953.85 297.720287
953.9 297.720287
953.95 297.720287
954 297.709426
954.05 297.709426
954.1 297.709426
954.15 297.699571
954.2 297.699571
954.25 297.699571
954.3 297.699571
954.35 297.688042
954.4 297.688042
954.45 297.688042
954.5 297.688042
954.55 297.676762
954.6 297.676762
954.65 297.676762
954.7 297.666303
954.75 297.666303
954.8 297.666303
954.85 297.666303
954.9 297.655456
954.95 297.655456
955 297.655456
955.05 297.655456
955.1 297.64608
955.15 297.64608
955.2 297.64608
955.25 297.634478
955.3 297.634478
955.35 297.634478
955.4 297.634478
955.45 297.624026
955.5 297.624026
955.55 297.624026
955.6 297.612326
955.65 297.612326
955.7 297.612326
955.75 297.601423
955.8 297.601423
955.85 297.601423
955.9 297.601423
955.95 297.590146
956 297.590146
956.05 297.590146
956.1 297.590146
956.15 297.578909
956.2 297.578909
956.25 297.578909
956.3 297.568143
956.35 297.568143
956.4 297.568143
956.45 297.568143
956.5 297.555969
956.55 297.555969
956.6 297.555969
956.65 297.547105
956.7 297.547105
956.75 297.547105
956.8 297.547105
956.85 297.535236
956.9 297.535236
956.95 297.535236
957 297.535236
957.05 297.526021
957.1 297.526021
957.15 297.526021
957.2 297.514719
957.25 297.514719
957.3 297.514719
957.35 297.514719
957.4 297.503147
957.45 297.503147
957.5 297.503147
957.55 297.503147
957.6 297.491635
957.65 297.491635
957.7 297.491635
957.75 297.481801
957.8 297.481801
957.85 297.481801
957.9 297.470677
957.95 297.470677
958 297.470677
958.05 297.470677
958.1 297.458664
958.15 297.458664
958.2 297.458664
958.25 297.447286
958.3 297.447286
958.35 297.447286
958.4 297.447286
958.45 297.436117
958.5 297.436117
958.55 297.436117
958.6 297.436117
958.65 297.427359
958.7 297.427359
958.75 297.415207
958.8 297.415207
958.85 297.415207
958.9 297.415207
958.95 297.415207
959 297.404719
959.05 297.404719
959.1 297.404719
959.15 297.393605
959.2 297.393605
959.25 297.393605
959.3 297.393605
959.35 297.38247
959.4 297.38247
959.45 297.38247
959.5 297.372493
959.55 297.372493
959.6 297.372493
959.65 297.372493
959.7 297.36325
959.75 297.36325
959.8 297.36325
959.85 297.36325
959.9 297.351341
959.95 297.351341
960 297.351341

# External Channel Data Cycle: 0, TEY [A] (Pico Probe 3)
#
# ColumnLabels: energy TEY [A] (Pico Probe 3)
#
920 4.373879e-08
920.05 4.349479e-08
920.1 4.333526e-08
920.15 4.325393e-08
920.2 4.329459e-08
920.25 4.334465e-08
920.3 4.332588e-08
920.35 4.311004e-08
920.4 4.285666e-08
920.45 4.26283e-08
920.5 4.268149e-08
920.55 4.271902e-08
920.6 4.267836e-08
920.65 4.26502e-08
920.7 4.265646e-08
920.75 4.248441e-08
920.8 4.216847e-08
920.85 4.194637e-08
920.9 4.186817e-08
920.95 4.183376e-08
921 4.183376e-08
921.05 4.17931e-08
921.1 4.177433e-08
921.15 4.163044e-08
921.2 4.148967e-08
921.25 4.142398e-08
921.3 4.140208e-08
921.35 4.141146e-08
921.4 4.137706e-08
921.45 4.13489e-08
921.5 4.130824e-08
921.55 4.128634e-08
921.6 4.133014e-08
921.65 4.124567e-08
921.7 4.114558e-08
921.75 4.12488e-08
921.8 4.131136e-08
921.85 4.130824e-08
921.9 4.135516e-08
921.95 4.139896e-08
922 4.142398e-08
922.05 4.13708e-08
922.1 4.139896e-08
922.15 4.1449e-08
922.2 4.153033e-08
922.25 4.158664e-08
922.3 4.169613e-08
922.35 4.180874e-08
922.4 4.177433e-08
922.45 4.181499e-08
922.5 4.188068e-08
922.55 4.189007e-08
922.6 4.185879e-08
922.65 4.192448e-08
922.7 4.196514e-08
922.75 4.202458e-08
922.8 4.213406e-08
922.85 4.21497e-08
922.9 4.216534e-08
922.95 4.209027e-08
923 4.190571e-08
923.05 4.185566e-08
923.1 4.188694e-08
923.15 4.198078e-08
923.2 4.204335e-08
923.25 4.203083e-08
923.3 4.204647e-08
923.35 4.211842e-08
923.4 4.205273e-08
923.45 4.188381e-08
923.5 4.176182e-08
923.55 4.173366e-08
923.6 4.175243e-08
923.65 4.172428e-08
923.7 4.166171e-08
923.75 4.16711e-08
923.8 4.152408e-08
923.85 4.140521e-08
923.9 4.126757e-08
923.95 4.129572e-08
924 4.129572e-08
924.05 4.123629e-08
924.1 4.122378e-08
924.15 4.120501e-08
924.2 4.116121e-08
924.25 4.108301e-08
924.3 4.092661e-08
924.35 4.083902e-08
924.4 4.081399e-08
924.45 4.082025e-08
924.5 4.085779e-08
924.55 4.091097e-08
924.6 4.095789e-08
924.65 4.090471e-08
924.7 4.085779e-08
924.75 4.088907e-08
924.8 4.092973e-08
924.85 4.08484e-08
924.9 4.082651e-08
924.95 4.084215e-08
925 4.088594e-08
925.05 4.092661e-08
925.1 4.093599e-08
925.15 4.091409e-08
925.2 4.094225e-08
925.25 4.095476e-08
925.3 4.090784e-08
925.35 4.089845e-08
925.4 4.09923e-08
925.45 4.103922e-08
925.5 4.110491e-08
925.55 4.103922e-08
925.6 4.10486e-08
925.65 4.09923e-08
925.7 4.089845e-08
925.75 4.086092e-08
925.8 4.092348e-08
925.85 4.092661e-08
925.9 4.097353e-08
925.95 4.088281e-08
926 4.091097e-08
926.05 4.084215e-08
926.1 4.078271e-08
926.15 4.082964e-08
926.2 4.088594e-08
926.25 4.089533e-08
926.3 4.082338e-08
926.35 4.080148e-08
926.4 4.071077e-08
926.45 4.070138e-08
926.5 4.070764e-08
926.55 4.07483e-08
926.6 4.069513e-08
926.65 4.066072e-08
926.7 4.062005e-08
926.75 4.07702e-08
926.8 4.08484e-08
926.85 4.07702e-08
926.9 4.07483e-08
926.95 4.075769e-08
927 4.070451e-08
927.05 4.069513e-08
927.1 4.055749e-08
927.15 4.052621e-08
927.2 4.058251e-08
927.25 4.062005e-08
927.3 4.067635e-08
927.35 4.065446e-08
927.4 4.060754e-08
927.45 4.057626e-08
927.5 4.062631e-08
927.55 4.060754e-08
927.6 4.04699e-08
927.65 4.042298e-08
927.7 4.043549e-08
927.75 4.041985e-08
927.8 4.041672e-08
927.85 4.03479e-08
927.9 4.030724e-08
927.95 3.963156e-08
928 4.030724e-08
928.05 4.030724e-08
928.1 4.029785e-08
928.15 4.027283e-08
928.2 4.010078e-08
928.25 4.003196e-08
928.3 4.001006e-08
928.35 3.991309e-08
928.4 3.983489e-08
928.45 3.983802e-08
928.5 3.99475e-08
928.55 3.990997e-08
928.6 3.981925e-08
928.65 3.970351e-08
928.7 3.966284e-08
928.75 3.97911e-08
928.8 3.990058e-08
928.85 3.971289e-08
928.9 3.965033e-08
928.95 3.967849e-08
929 3.952208e-08
929.05 3.935941e-08
929.1 3.933439e-08
929.15 3.945638e-08
929.2 3.960341e-08
929.25 3.970977e-08
929.3 3.970664e-08
929.35 3.963469e-08
929.4 3.955962e-08
929.45 3.958151e-08
929.5 3.965033e-08
929.55 3.969725e-08
929.6 3.971289e-08
929.65 3.979422e-08
929.7 3.9813e-08
929.75 3.987556e-08
929.8 3.989745e-08
929.85 3.987869e-08
929.9 3.986304e-08
929.95 3.98693e-08
930 3.986617e-08
930.05 3.990058e-08
930.1 4.002571e-08
930.15 4.001319e-08
930.2 3.997253e-08
930.25 4.000068e-08
930.3 4.009452e-08
930.35 4.01696e-08
930.4 4.017899e-08
930.45 4.015396e-08
930.5 4.010391e-08
930.55 4.006637e-08
930.6 4.007263e-08
930.65 4.006637e-08
930.7 4.002883e-08
930.75 3.997253e-08
930.8 3.998191e-08
930.85 4.001319e-08
930.9 4.004448e-08
930.95 3.99913e-08
931 3.99694e-08
931.05 3.992248e-08
931.1 3.972228e-08
931.15 3.957526e-08
931.2 3.963156e-08
931.25 3.965346e-08
931.3 3.956587e-08
931.35 3.953772e-08
931.4 3.960967e-08
931.45 3.939695e-08
931.5 3.925306e-08
931.55 3.930937e-08
931.6 3.935629e-08
931.65 3.942198e-08
931.7 3.95127e-08
931.75 3.923429e-08
931.8 3.925619e-08
931.85 3.934378e-08
931.9 3.915296e-08
931.95 3.909039e-08
932 3.928434e-08
932.05 3.938444e-08
932.1 3.947203e-08
932.15 3.950018e-08
932.2 3.936567e-08
932.25 3.937819e-08
932.3 3.938757e-08
932.35 3.943762e-08
932.4 3.942511e-08
932.45 3.95471e-08
932.5 3.961592e-08
932.55 3.965659e-08
932.6 3.969725e-08
932.65 3.975043e-08
932.7 3.981925e-08
932.75 3.980987e-08
932.8 3.983176e-08
932.85 3.984428e-08
932.9 3.987869e-08
932.95 3.988182e-08
933 3.991935e-08
933.05 3.993499e-08
933.1 3.995376e-08
933.15 3.995063e-08
933.2 4.003509e-08
933.25 4.007576e-08
933.3 3.999755e-08
933.35 3.989432e-08
933.4 3.982863e-08
933.45 3.983489e-08
933.5 3.98255e-08
933.55 3.975669e-08
933.6 3.970977e-08
933.65 3.977546e-08
933.7 3.980674e-08
933.75 3.955962e-08
933.8 3.950644e-08
933.85 3.950644e-08
933.9 3.950644e-08
933.95 3.945013e-08
934 3.93469e-08
934.05 3.925932e-08
934.1 3.926557e-08
934.15 3.930311e-08
934.2 3.917173e-08
934.25 3.908414e-08
934.3 3.910917e-08
934.35 3.908101e-08
934.4 3.903722e-08
934.45 3.89684e-08
934.5 3.890271e-08
934.55 3.882138e-08
934.6 3.87463e-08
934.65 3.862431e-08
934.7 3.852734e-08
934.75 3.847416e-08
934.8 3.841159e-08
934.85 3.840221e-08
934.9 3.837718e-08
934.95 3.730111e-08
935 3.832088e-08
935.05 3.825519e-08
935.1 3.826457e-08
935.15 3.827708e-08
935.2 3.835842e-08
935.25 3.83678e-08
935.3 3.828021e-08
935.35 3.818324e-08
935.4 3.809878e-08
935.45 3.808314e-08
935.5 3.806124e-08
935.55 3.811755e-08
935.6 3.813632e-08
935.65 3.812381e-08
935.7 3.809253e-08
935.75 3.80675e-08
935.8 3.804873e-08
935.85 3.809566e-08
935.9 3.815509e-08
935.95 3.816447e-08
936 3.815509e-08
936.05 3.810817e-08
936.1 3.810191e-08
936.15 3.806124e-08
936.2 3.807063e-08
936.25 3.813006e-08
936.3 3.820201e-08
936.35 3.828334e-08
936.4 3.821765e-08
936.45 3.810504e-08
936.5 3.793299e-08
936.55 3.78673e-08
936.6 3.787043e-08
936.65 3.801119e-08
936.7 3.808627e-08
936.75 3.815196e-08
936.8 3.817386e-08
936.85 3.81895e-08
936.9 3.828647e-08
936.95 3.832401e-08
937 3.829586e-08
937.05 3.826457e-08
937.1 3.833652e-08
937.15 3.842411e-08
937.2 3.848667e-08
937.25 3.855549e-08
937.3 3.84898e-08
937.35 3.849605e-08
937.4 3.849918e-08
937.45 3.852734e-08
937.5 3.857426e-08
937.55 3.864308e-08
937.6 3.869313e-08
937.65 3.881199e-08
937.7 3.889645e-08
937.75 3.890584e-08
937.8 3.891209e-08
937.85 3.889333e-08
937.9 3.889333e-08
937.95 3.893399e-08
938 3.894338e-08
938.05 3.890584e-08
938.1 3.89465e-08
938.15 3.894338e-08
938.2 3.889333e-08
938.25 3.883076e-08
938.3 3.881199e-08
938.35 3.878071e-08
938.4 3.865246e-08
938.45 3.867436e-08
938.5 3.871502e-08
938.55 3.865559e-08
938.6 3.857113e-08
938.65 3.854923e-08
938.7 3.857426e-08
938.75 3.849605e-08
938.8 3.840847e-08
938.85 3.841472e-08
938.9 3.841159e-08
938.95 3.835842e-08
939 3.820827e-08
939.05 3.816447e-08
939.1 3.814257e-08
939.15 3.816135e-08
939.2 3.809878e-08
939.25 3.799243e-08
939.3 3.800806e-08
939.35 3.803935e-08
939.4 3.799868e-08
939.45 3.798304e-08
939.5 3.79893e-08
939.55 3.79674e-08
939.6 3.793612e-08
939.65 3.792361e-08
939.7 3.796427e-08
939.75 3.795489e-08
939.8 3.795176e-08
939.85 3.794863e-08
939.9 3.794237e-08
939.95 3.798304e-08
940 3.797678e-08
940.05 3.795176e-08
940.1 3.790484e-08
940.15 3.787981e-08
940.2 3.795489e-08
940.25 3.739808e-08
940.3 3.805499e-08
940.35 3.80675e-08
940.4 3.808001e-08
940.45 3.805499e-08
940.5 3.803935e-08
940.55 3.80675e-08
940.6 3.80894e-08
940.65 3.808001e-08
940.7 3.806437e-08
940.75 3.815196e-08
940.8 3.823017e-08
940.85 3.824893e-08
940.9 3.819263e-08
940.95 3.812381e-08
941 3.811129e-08
941.05 3.810504e-08
941.1 3.809566e-08
941.15 3.80675e-08
941.2 3.798304e-08
941.25 3.797366e-08
941.3 3.792048e-08
941.35 3.790171e-08
941.4 3.780474e-08
941.45 3.772028e-08
941.5 3.765772e-08
941.55 3.762957e-08
941.6 3.756388e-08
941.65 3.742311e-08
941.7 3.723855e-08
941.75 3.722916e-08
941.8 3.719163e-08
941.85 3.708527e-08
941.9 3.699768e-08
941.95 3.703835e-08
942 3.702896e-08
942.05 3.693512e-08
942.1 3.680999e-08
942.15 3.677246e-08
942.2 3.670364e-08
942.25 3.668487e-08
942.3 3.655662e-08
942.35 3.660667e-08
942.4 3.659103e-08
942.45 3.660667e-08
942.5 3.662856e-08
942.55 3.662231e-08
942.6 3.671928e-08
942.65 3.678184e-08
942.7 3.685379e-08
942.75 3.683815e-08
942.8 3.671928e-08
942.85 3.668487e-08
942.9 3.670677e-08
942.95 3.673805e-08
943 3.677559e-08
943.05 3.679123e-08
943.1 3.683189e-08
943.15 3.687881e-08
943.2 3.690071e-08
943.25 3.692886e-08
943.3 3.697578e-08
943.35 3.70665e-08
943.4 3.706025e-08
943.45 3.709778e-08
943.5 3.720101e-08
943.55 3.722604e-08
943.6 3.719788e-08
943.65 3.706025e-08
943.7 3.69664e-08
943.75 3.702896e-08
943.8 3.712281e-08
943.85 3.712594e-08
943.9 3.712906e-08
943.95 3.715409e-08
944 3.713532e-08
944.05 3.711342e-08
944.1 3.707589e-08
944.15 3.705086e-08
944.2 3.706025e-08
944.25 3.705086e-08
944.3 3.706337e-08
944.35 3.708527e-08
944.4 3.697578e-08
944.45 3.694138e-08
944.5 3.701645e-08
944.55 3.714783e-08
944.6 3.698204e-08
944.65 3.699455e-08
944.7 3.691009e-08
944.75 3.686317e-08
944.8 3.682251e-08
944.85 3.674743e-08
944.9 3.670051e-08
944.95 3.681312e-08
945 3.692574e-08
945.05 3.697891e-08
945.1 3.705712e-08
945.15 3.705399e-08
945.2 3.695389e-08
945.25 3.683815e-08
945.3 3.672241e-08
945.35 3.665359e-08
945.4 3.663482e-08
945.45 3.662231e-08
945.5 3.669738e-08
945.55 3.565259e-08
945.6 3.677559e-08
945.65 3.676933e-08
945.7 3.680061e-08
945.75 3.677872e-08
945.8 3.675682e-08
945.85 3.663482e-08
945.9 3.657851e-08
945.95 3.663169e-08
946 3.667861e-08
946.05 3.668174e-08
946.1 3.667861e-08
946.15 3.66661e-08
946.2 3.669113e-08
946.25 3.669738e-08
946.3 3.6688e-08
946.35 3.665359e-08
946.4 3.668174e-08
946.45 3.672241e-08
946.5 3.674118e-08
946.55 3.669738e-08
946.6 3.660667e-08
946.65 3.651908e-08
946.7 3.649405e-08
946.75 3.650657e-08
946.8 3.645026e-08
946.85 3.641898e-08
946.9 3.640334e-08
946.95 3.634391e-08
947 3.630637e-08
947.05 3.634078e-08
947.1 3.641898e-08
947.15 3.63877e-08
947.2 3.626257e-08
947.25 3.614058e-08
947.3 3.61093e-08
947.35 3.613745e-08
947.4 3.617498e-08
947.45 3.62094e-08
947.5 3.618437e-08
947.55 3.630011e-08
947.6 3.642836e-08
947.65 3.661605e-08
947.7 3.670051e-08
947.75 3.671302e-08
947.8 3.669113e-08
947.85 3.668487e-08
947.9 3.667548e-08
947.95 3.664108e-08
948 3.662856e-08
948.05 3.667861e-08
948.1 3.672241e-08
948.15 3.67662e-08
948.2 3.679435e-08
948.25 3.681938e-08
948.3 3.680687e-08
948.35 3.678497e-08
948.4 3.680687e-08
948.45 3.680687e-08
948.5 3.687256e-08
948.55 3.691322e-08
948.6 3.694763e-08
948.65 3.68882e-08
948.7 3.678497e-08
948.75 3.669113e-08
948.8 3.653159e-08
948.85 3.646903e-08
948.9 3.642211e-08
948.95 3.634391e-08
949 3.630011e-08
949.05 3.628134e-08
949.1 3.626257e-08
949.15 3.623442e-08
949.2 3.617186e-08
949.25 3.599668e-08
949.3 3.591223e-08
949.35 3.590284e-08
949.4 3.591535e-08
949.45 3.580587e-08
949.5 3.563382e-08
949.55 3.555875e-08
949.6 3.549618e-08
949.65 3.539921e-08
949.7 3.540234e-08
949.75 3.5443e-08
949.8 3.543988e-08
949.85 3.518963e-08
949.9 3.508327e-08
949.95 3.498004e-08
950 3.490497e-08
950.05 3.487369e-08
950.1 3.48643e-08
950.15 3.488307e-08
950.2 3.492061e-08
950.25 3.493938e-08
950.3 3.495502e-08
950.35 3.473292e-08
950.4 3.467036e-08
950.45 3.471415e-08
950.5 3.475482e-08
950.55 3.4808e-08
950.6 3.477671e-08
950.65 3.483302e-08
950.7 3.487994e-08
950.75 3.494251e-08
950.8 3.496127e-08
950.85 3.40854e-08
950.9 3.522716e-08
950.95 3.528034e-08
951 3.529598e-08
951.05 3.529598e-08
951.1 3.529911e-08
951.15 3.535542e-08
951.2 3.547742e-08
951.25 3.547116e-08
951.3 3.545552e-08
951.35 3.547116e-08
951.4 3.547742e-08
951.45 3.554311e-08
951.5 3.561193e-08
951.55 3.566823e-08
951.6 3.568387e-08
951.65 3.559941e-08
951.7 3.560567e-08
951.75 3.567762e-08
951.8 3.569325e-08
951.85 3.562443e-08
951.9 3.555562e-08
951.95 3.552121e-08
952 3.554311e-08
952.05 3.5565e-08
952.1 3.558377e-08
952.15 3.555249e-08
952.2 3.543988e-08
952.25 3.540234e-08
952.3 3.530537e-08
952.35 3.534916e-08
952.4 3.539295e-08
952.45 3.545552e-08
952.5 3.543988e-08
952.55 3.532101e-08
952.6 3.522716e-08
952.65 3.51865e-08
952.7 3.517711e-08
952.75 3.519901e-08
952.8 3.519588e-08
952.85 3.517399e-08
952.9 3.51646e-08
952.95 3.514896e-08
953 3.505199e-08
953.05 3.503635e-08
953.1 3.508953e-08
953.15 3.518024e-08
953.2 3.528034e-08
953.25 3.540547e-08
953.3 3.544613e-08
953.35 3.543362e-08
953.4 3.536167e-08
953.45 3.534603e-08
953.5 3.530537e-08
953.55 3.529911e-08
953.6 3.53085e-08
953.65 3.535855e-08
953.7 3.541798e-08
953.75 3.541485e-08
953.8 3.543049e-08
953.85 3.543675e-08
953.9 3.543049e-08
953.95 3.541798e-08
954 3.539921e-08
954.05 3.537106e-08
954.1 3.535855e-08
954.15 3.534916e-08
954.2 3.54086e-08
954.25 3.54649e-08
954.3 3.54868e-08
954.35 3.553372e-08
954.4 3.556187e-08
954.45 3.556187e-08
954.5 3.549931e-08
954.55 3.543675e-08
954.6 3.542111e-08
954.65 3.539608e-08
954.7 3.545239e-08
954.75 3.547116e-08
954.8 3.540234e-08
954.85 3.52866e-08
954.9 3.517399e-08
954.95 3.519901e-08
955 3.524593e-08
955.05 3.522091e-08
955.1 3.515834e-08
955.15 3.503322e-08
955.2 3.501445e-08
955.25 3.499256e-08
955.3 3.501445e-08
955.35 3.505199e-08
955.4 3.506137e-08
955.45 3.505512e-08
955.5 3.488307e-08
955.55 3.47861e-08
955.6 3.472354e-08
955.65 3.473918e-08
955.7 3.479548e-08
955.75 3.485179e-08
955.8 3.489246e-08
955.85 3.488307e-08
955.9 3.487994e-08
955.95 3.482677e-08
956 3.475795e-08
956.05 3.464533e-08
956.1 3.45859e-08
956.15 3.448893e-08
956.2 3.443262e-08
956.25 3.447016e-08
956.3 3.449518e-08
956.35 3.452334e-08
956.4 3.453898e-08
956.45 3.44639e-08
956.5 3.441698e-08
956.55 3.437318e-08
956.6 3.438883e-08
956.65 3.43857e-08
956.7 3.435755e-08
956.75 3.431375e-08
956.8 3.415735e-08
956.85 3.402284e-08
956.9 3.395089e-08
956.95 3.395715e-08
957 3.397904e-08
957.05 3.400094e-08
957.1 3.407914e-08
957.15 3.387268e-08
957.2 3.368813e-08
957.25 3.366936e-08
957.3 3.365059e-08
957.35 3.366623e-08
957.4 3.3685e-08
957.45 3.366936e-08
957.5 3.363182e-08
957.55 3.360054e-08
957.6 3.356926e-08
957.65 3.34629e-08
957.7 3.340347e-08
957.75 3.335029e-08
957.8 3.336593e-08
957.85 3.339096e-08
957.9 3.33847e-08
957.95 3.341598e-08
958 3.343475e-08
958.05 3.346603e-08
958.1 3.361305e-08
958.15 3.347229e-08
958.2 3.339096e-08
958.25 3.341911e-08
958.3 3.345977e-08
958.35 3.352547e-08
958.4 3.355049e-08
958.45 3.369751e-08
958.5 3.38633e-08
958.55 3.396028e-08
958.6 3.403848e-08
958.65 3.401971e-08
958.7 3.379761e-08
958.75 3.377259e-08
958.8 3.386643e-08
958.85 3.399781e-08
958.9 3.415735e-08
958.95 3.433565e-08
959 3.436067e-08
959.05 3.435442e-08
959.1 3.434191e-08
959.15 3.433565e-08
959.2 3.433565e-08
959.25 3.4442e-08
959.3 3.461718e-08
959.35 3.463908e-08
959.4 3.465472e-08
959.45 3.457026e-08
959.5 3.449831e-08
959.55 3.44858e-08
959.6 3.448267e-08
959.65 3.441385e-08
959.7 3.4442e-08
959.75 3.450144e-08
959.8 3.453898e-08
959.85 3.447328e-08
959.9 3.442636e-08
959.95 3.446078e-08
960 3.440447e-08

# External Channel Data Cycle: 0, I_mirror [A] (Pico Probe 3)
#
# ColumnLabels: energy I_mirror [A] (Pico Probe 3)
#
920 1.04721e-07
920.05 1.043171e-07
920.1 1.039133e-07
920.15 1.036754e-07
920.2 1.038037e-07
920.25 1.039258e-07
920.3 1.038162e-07
920.35 1.034875e-07
920.4 1.027299e-07
920.45 1.023292e-07
920.5 1.024763e-07
920.55 1.025233e-07
920.6 1.024012e-07
920.65 1.023417e-07
920.7 1.023323e-07
920.75 1.019003e-07
920.8 1.011991e-07
920.85 1.008328e-07
920.9 1.006449e-07
920.95 1.005009e-07
921 1.004696e-07
921.05 1.004352e-07
921.1 1.003789e-07
921.15 1.000627e-07
921.2 9.977151e-08
921.25 9.962439e-08
921.3 9.96056e-08
921.35 9.957742e-08
921.4 9.950542e-08
921.45 9.942715e-08
921.5 9.936142e-08
921.55 9.933323e-08
921.6 9.946785e-08
921.65 9.920802e-08
921.7 9.902957e-08
921.75 9.930507e-08
921.8 9.944281e-08
921.85 9.943654e-08
921.9 9.951794e-08
921.95 9.968385e-08
922 9.971204e-08
922.05 9.962439e-08
922.1 9.977151e-08
922.15 9.987482e-08
922.2 1.000251e-07
922.25 1.001785e-07
922.3 1.004759e-07
922.35 1.006575e-07
922.4 1.005385e-07
922.45 1.006763e-07
922.5 1.008422e-07
922.55 1.008046e-07
922.6 1.007577e-07
922.65 1.009173e-07
922.7 1.010269e-07
922.75 1.012491e-07
922.8 1.014902e-07
922.85 1.015059e-07
922.9 1.015372e-07
922.95 1.013337e-07
923 1.009549e-07
923.05 1.007577e-07
923.1 1.008328e-07
923.15 1.011615e-07
923.2 1.012523e-07
923.25 1.01246e-07
923.3 1.013118e-07
923.35 1.014213e-07
923.4 1.012617e-07
923.45 1.009799e-07
923.5 1.006043e-07
923.55 1.005479e-07
923.6 1.005698e-07
923.65 1.005416e-07
923.7 1.004383e-07
923.75 1.004102e-07
923.8 1.000533e-07
923.85 9.978091e-08
923.9 9.952419e-08
923.95 9.957116e-08
924 9.954925e-08
924.05 9.947411e-08
924.1 9.940211e-08
924.15 9.938958e-08
924.2 9.926123e-08
924.25 9.906088e-08
924.3 9.878539e-08
924.35 9.852867e-08
924.4 9.847545e-08
924.45 9.848797e-08
924.5 9.860068e-08
924.55 9.872903e-08
924.6 9.882609e-08
924.65 9.868833e-08
924.7 9.862573e-08
924.75 9.864451e-08
924.8 9.874469e-08
924.85 9.857877e-08
924.9 9.85819e-08
924.95 9.861007e-08
925 9.869147e-08
925.05 9.878852e-08
925.1 9.885738e-08
925.15 9.8848e-08
925.2 9.885112e-08
925.25 9.886678e-08
925.3 9.880104e-08
925.35 9.882295e-08
925.4 9.898574e-08
925.45 9.91047e-08
925.5 9.930819e-08
925.55 9.917671e-08
925.6 9.91047e-08
925.65 9.901705e-08
925.7 9.885738e-08
925.75 9.869773e-08
925.8 9.89106e-08
925.85 9.889808e-08
925.9 9.898887e-08
925.95 9.878539e-08
926 9.885112e-08
926.05 9.873529e-08
926.1 9.854746e-08
926.15 9.870712e-08
926.2 9.881669e-08
926.25 9.881043e-08
926.3 9.864764e-08
926.35 9.862259e-08
926.4 9.839406e-08
926.45 9.83878e-08
926.5 9.847859e-08
926.55 9.850363e-08
926.6 9.839093e-08
926.65 9.83471e-08
926.7 9.829075e-08
926.75 9.868833e-08
926.8 9.878539e-08
926.85 9.862259e-08
926.9 9.855685e-08
926.95 9.857563e-08
927 9.850363e-08
927.05 9.849423e-08
927.1 9.825318e-08
927.15 9.81217e-08
927.2 9.825006e-08
927.25 9.837215e-08
927.3 9.851615e-08
927.35 9.836901e-08
927.4 9.82657e-08
927.45 9.823127e-08
927.5 9.835963e-08
927.55 9.822501e-08
927.6 9.794952e-08
927.65 9.787751e-08
927.7 9.78869e-08
927.75 9.78869e-08
927.8 9.78462e-08
927.85 9.777107e-08
927.9 9.765524e-08
927.95 9.461544e-08
928 9.760202e-08
928.05 9.766776e-08
928.1 9.762393e-08
928.15 9.760202e-08
928.2 9.709174e-08
928.25 9.692582e-08
928.3 9.687573e-08
928.35 9.665972e-08
928.4 9.655015e-08
928.45 9.660023e-08
928.5 9.685068e-08
928.55 9.671606e-08
928.6 9.658145e-08
928.65 9.620578e-08
928.7 9.620265e-08
928.75 9.657519e-08
928.8 9.669728e-08
928.85 9.637483e-08
928.9 9.619639e-08
928.95 9.625587e-08
929 9.583324e-08
929.05 9.554836e-08
929.1 9.548888e-08
929.15 9.562662e-08
929.2 9.624022e-08
929.25 9.639048e-08
929.3 9.638109e-08
929.35 9.626213e-08
929.4 9.609934e-08
929.45 9.620265e-08
929.5 9.633413e-08
929.55 9.639675e-08
929.6 9.646562e-08
929.65 9.663781e-08
929.7 9.673172e-08
929.75 9.681311e-08
929.8 9.686634e-08
929.85 9.686008e-08
929.9 9.686947e-08
929.95 9.688825e-08
930 9.687573e-08
930.05 9.695399e-08
930.1 9.725765e-08
930.15 9.720443e-08
930.2 9.711992e-08
930.25 9.725453e-08
930.3 9.748306e-08
930.35 9.762393e-08
930.4 9.763333e-08
930.45 9.758011e-08
930.5 9.740479e-08
930.55 9.739227e-08
930.6 9.740793e-08
930.65 9.741419e-08
930.7 9.731088e-08
930.75 9.716687e-08
930.8 9.721069e-08
930.85 9.735157e-08
930.9 9.741105e-08
930.95 9.732966e-08
931 9.729835e-08
931.05 9.711366e-08
931.1 9.65971e-08
931.15 9.641866e-08
931.2 9.656267e-08
931.25 9.655954e-08
931.3 9.643745e-08
931.35 9.633727e-08
931.4 9.661902e-08
931.45 9.61776e-08
931.5 9.582698e-08
931.55 9.59929e-08
931.6 9.614943e-08
931.65 9.634353e-08
931.7 9.653136e-08
931.75 9.590212e-08
931.8 9.608682e-08
931.85 9.627465e-08
931.9 9.581133e-08
931.95 9.57988e-08
932 9.631848e-08
932.05 9.657832e-08
932.1 9.673485e-08
932.15 9.67098e-08
932.2 9.647815e-08
932.25 9.652197e-08
932.3 9.658458e-08
932.35 9.663154e-08
932.4 9.661589e-08
932.45 9.681311e-08
932.5 9.70166e-08
932.55 9.707922e-08
932.6 9.716374e-08
932.65 9.733279e-08
932.7 9.746115e-08
932.75 9.745175e-08
932.8 9.750811e-08
932.85 9.752063e-08
932.9 9.762393e-08
932.95 9.762707e-08
933 9.768968e-08
933.05 9.772099e-08
933.1 9.77116e-08
933.15 9.775855e-08
933.2 9.795578e-08
933.25 9.794952e-08
933.3 9.786186e-08
933.35 9.752376e-08
933.4 9.743923e-08
933.45 9.742358e-08
933.5 9.742671e-08
933.55 9.727018e-08
933.6 9.713244e-08
933.65 9.734531e-08
933.7 9.732027e-08
933.75 9.679746e-08
933.8 9.666285e-08
933.85 9.662841e-08
933.9 9.659084e-08
933.95 9.646249e-08
934 9.617447e-08
934.05 9.603047e-08
934.1 9.603986e-08
934.15 9.616195e-08
934.2 9.587394e-08
934.25 9.565167e-08
934.3 9.56454e-08
934.35 9.562036e-08
934.4 9.549201e-08
934.45 9.538557e-08
934.5 9.529791e-08
934.55 9.502242e-08
934.6 9.489094e-08
934.65 9.464988e-08
934.7 9.430551e-08
934.75 9.418655e-08
934.8 9.406133e-08
934.85 9.404567e-08
934.9 9.39768e-08
934.95 9.106536e-08
935 9.387036e-08
935.05 9.378897e-08
935.1 9.382966e-08
935.15 9.382966e-08
935.2 9.397368e-08
935.25 9.401124e-08
935.3 9.379836e-08
935.35 9.354478e-08
935.4 9.341956e-08
935.45 9.334756e-08
935.5 9.335695e-08
935.55 9.347904e-08
935.6 9.354478e-08
935.65 9.347278e-08
935.7 9.340704e-08
935.75 9.331938e-08
935.8 9.335382e-08
935.85 9.345399e-08
935.9 9.357609e-08
935.95 9.362304e-08
936 9.357922e-08
936.05 9.351661e-08
936.1 9.347591e-08
936.15 9.346338e-08
936.2 9.349156e-08
936.25 9.364183e-08
936.3 9.382028e-08
936.35 9.399559e-08
936.4 9.38234e-08
936.45 9.351661e-08
936.5 9.319415e-08
936.55 9.305954e-08
936.6 9.306267e-08
936.65 9.339139e-08
936.7 9.351661e-08
936.75 9.365122e-08
936.8 9.373888e-08
936.85 9.384532e-08
936.9 9.400811e-08
936.95 9.414586e-08
937 9.406133e-08
937.05 9.397054e-08
937.1 9.413647e-08
937.15 9.436187e-08
937.2 9.455283e-08
937.25 9.471562e-08
937.3 9.452152e-08
937.35 9.454657e-08
937.4 9.45904e-08
937.45 9.469996e-08
937.5 9.485024e-08
937.55 9.490972e-08
937.6 9.502555e-08
937.65 9.541375e-08
937.7 9.561723e-08
937.75 9.559532e-08
937.8 9.561723e-08
937.85 9.558279e-08
937.9 9.558279e-08
937.95 9.567984e-08
938 9.567358e-08
938.05 9.560784e-08
938.1 9.568923e-08
938.15 9.569862e-08
938.2 9.560158e-08
938.25 9.549201e-08
938.3 9.541061e-08
938.35 9.526661e-08
938.4 9.507564e-08
938.45 9.513512e-08
938.5 9.520399e-08
938.55 9.500677e-08
938.6 9.484398e-08
938.65 9.482206e-08
938.7 9.486589e-08
938.75 9.471875e-08
938.8 9.449022e-08
938.85 9.454657e-08
938.9 9.450587e-08
938.95 9.432743e-08
939 9.413021e-08
939.05 9.397368e-08
939.1 9.396428e-08
939.15 9.399559e-08
939.2 9.382654e-08
939.25 9.360739e-08
939.3 9.365435e-08
939.35 9.368879e-08
939.4 9.36387e-08
939.45 9.359487e-08
939.5 9.359487e-08
939.55 9.353539e-08
939.6 9.349782e-08
939.65 9.348217e-08
939.7 9.353226e-08
939.75 9.351661e-08
939.8 9.34947e-08
939.85 9.349156e-08
939.9 9.352287e-08
939.95 9.360426e-08
940 9.361052e-08
940.05 9.361678e-08
940.1 9.348843e-08
940.15 9.347591e-08
940.2 9.358548e-08
940.25 9.090883e-08
940.3 9.384219e-08
940.35 9.384845e-08
940.4 9.389541e-08
940.45 9.383593e-08
940.5 9.378897e-08
940.55 9.391732e-08
940.6 9.39455e-08
940.65 9.389854e-08
940.7 9.385471e-08
940.75 9.411768e-08
940.8 9.431491e-08
940.85 9.428986e-08
940.9 9.420533e-08
940.95 9.398933e-08
941 9.396742e-08
941.05 9.398307e-08
941.1 9.392359e-08
941.15 9.38328e-08
941.2 9.372323e-08
941.25 9.367314e-08
941.3 9.362618e-08
941.35 9.351661e-08
941.4 9.325677e-08
941.45 9.311589e-08
941.5 9.300632e-08
941.55 9.297189e-08
941.6 9.276527e-08
941.65 9.24209e-08
941.7 9.199827e-08
941.75 9.194818e-08
941.8 9.189496e-08
941.85 9.165391e-08
941.9 9.151303e-08
941.95 9.157564e-08
942 9.149112e-08
942.05 9.119998e-08
942.1 9.100275e-08
942.15 9.090883e-08
942.2 9.076795e-08
942.25 9.068969e-08
942.3 9.045176e-08
942.35 9.05676e-08
942.4 9.052376e-08
942.45 9.06083e-08
942.5 9.057699e-08
942.55 9.074291e-08
942.6 9.094639e-08
942.65 9.108101e-08
942.7 9.12751e-08
942.75 9.118433e-08
942.8 9.098709e-08
942.85 9.086187e-08
942.9 9.093074e-08
942.95 9.097457e-08
943 9.106536e-08
943.05 9.107162e-08
943.1 9.118745e-08
943.15 9.135963e-08
943.2 9.138781e-08
943.25 9.153494e-08
943.3 9.166017e-08
943.35 9.179478e-08
943.4 9.181357e-08
943.45 9.198888e-08
943.5 9.211097e-08
943.55 9.220802e-08
943.6 9.218924e-08
943.65 9.178539e-08
943.7 9.160069e-08
943.75 9.180731e-08
943.8 9.206402e-08
943.85 9.204211e-08
943.9 9.201079e-08
943.95 9.205775e-08
944 9.201393e-08
944.05 9.202645e-08
944.1 9.195444e-08
944.15 9.187618e-08
944.2 9.190435e-08
944.25 9.187618e-08
944.3 9.194818e-08
944.35 9.192627e-08
944.4 9.172278e-08
944.45 9.156625e-08
944.5 9.183548e-08
944.55 9.213289e-08
944.6 9.174782e-08
944.65 9.173844e-08
944.7 9.158504e-08
944.75 9.14379e-08
944.8 9.133772e-08
944.85 9.111231e-08
944.9 9.109667e-08
944.95 9.129389e-08
945 9.15506e-08
945.05 9.169148e-08
945.1 9.191687e-08
945.15 9.195131e-08
945.2 9.167582e-08
945.25 9.14692e-08
945.3 9.116241e-08
945.35 9.099336e-08
945.4 9.096831e-08
945.45 9.100275e-08
945.5 9.108414e-08
945.55 9.001661e-08
945.6 9.137842e-08
945.65 9.134085e-08
945.7 9.14066e-08
945.75 9.134711e-08
945.8 9.130328e-08
945.85 9.096205e-08
945.9 9.091822e-08
945.95 9.108101e-08
946 9.111545e-08
946.05 9.112484e-08
946.1 9.112797e-08
946.15 9.112797e-08
946.2 9.120624e-08
946.25 9.120937e-08
946.3 9.121876e-08
946.35 9.116554e-08
946.4 9.124067e-08
946.45 9.134398e-08
946.5 9.135963e-08
946.55 9.123754e-08
946.6 9.102779e-08
946.65 9.081178e-08
946.7 9.080239e-08
946.75 9.083683e-08
946.8 9.066152e-08
946.85 9.060204e-08
946.9 9.056134e-08
946.95 9.045802e-08
947 9.040794e-08
947.05 9.04549e-08
947.1 9.070847e-08
947.15 9.061142e-08
947.2 9.027332e-08
947.25 9.001974e-08
947.3 8.994461e-08
947.35 9.000409e-08
947.4 9.011992e-08
947.45 9.025454e-08
947.5 9.019193e-08
947.55 9.035785e-08
947.6 9.066152e-08
947.65 9.109353e-08
947.7 9.131893e-08
947.75 9.14066e-08
947.8 9.13252e-08
947.85 9.136589e-08
947.9 9.13252e-08
947.95 9.125633e-08
948 9.126572e-08
948.05 9.136902e-08
948.1 9.142224e-08
948.15 9.156625e-08
948.2 9.162886e-08
948.25 9.171652e-08
948.3 9.172904e-08
948.35 9.165704e-08
948.4 9.167582e-08
948.45 9.175722e-08
948.5 9.190749e-08
948.55 9.199514e-08
948.6 9.202645e-08
948.65 9.190123e-08
948.7 9.164765e-08
948.75 9.143164e-08
948.8 9.106536e-08
948.85 9.094013e-08
948.9 9.08243e-08
948.95 9.070221e-08
949 9.054881e-08
949.05 9.052064e-08
949.1 9.050185e-08
949.15 9.043924e-08
949.2 9.030149e-08
949.25 8.985382e-08
949.3 8.968789e-08
949.35 8.971295e-08
949.4 8.97286e-08
949.45 8.93811e-08
949.5 8.906491e-08
949.55 8.879255e-08
949.6 8.862976e-08
949.65 8.844506e-08
949.7 8.848576e-08
949.75 8.854211e-08
949.8 8.848576e-08
949.85 8.803183e-08
949.9 8.773128e-08
949.95 8.752466e-08
950 8.739631e-08
950.05 8.728361e-08
950.1 8.73024e-08
950.15 8.733683e-08
950.2 8.742449e-08
950.25 8.744327e-08
950.3 8.750902e-08
950.35 8.693299e-08
950.4 8.686725e-08
950.45 8.694863e-08
950.5 8.704256e-08
950.55 8.716464e-08
950.6 8.709264e-08
950.65 8.722726e-08
950.7 8.73744e-08
950.75 8.754657e-08
950.8 8.757788e-08
950.85 8.527064e-08
950.9 8.829166e-08
950.95 8.841062e-08
951 8.845132e-08
951.05 8.844819e-08
951.1 8.848889e-08
951.15 8.86235e-08
951.2 8.897726e-08
951.25 8.894908e-08
951.3 8.888647e-08
951.35 8.890213e-08
951.4 8.902421e-08
951.45 8.915257e-08
951.5 8.933728e-08
951.55 8.951259e-08
951.6 8.956894e-08
951.65 8.932476e-08
951.7 8.942493e-08
951.75 8.958772e-08
951.8 8.958459e-08
951.85 8.940615e-08
951.9 8.925588e-08
951.95 8.91964e-08
952 8.92684e-08
952.05 8.933414e-08
952.1 8.93404e-08
952.15 8.928718e-08
952.2 8.899291e-08
952.25 8.886769e-08
952.3 8.87049e-08
952.35 8.87769e-08
952.4 8.89303e-08
952.45 8.907117e-08
952.5 8.901169e-08
952.55 8.874873e-08
952.6 8.854211e-08
952.65 8.845132e-08
952.7 8.839497e-08
952.75 8.847324e-08
952.8 8.85202e-08
952.85 8.844819e-08
952.9 8.842001e-08
952.95 8.837618e-08
953 8.814765e-08
953.05 8.81226e-08
953.1 8.823531e-08
953.15 8.845445e-08
953.2 8.871116e-08
953.25 8.903047e-08
953.3 8.906178e-08
953.35 8.905552e-08
953.4 8.888334e-08
953.45 8.883325e-08
953.5 8.878316e-08
953.55 8.874246e-08
953.6 8.880194e-08
953.65 8.892404e-08
953.7 8.904926e-08
953.75 8.909935e-08
953.8 8.913066e-08
953.85 8.910875e-08
953.9 8.906491e-08
953.95 8.906178e-08
954 8.902421e-08
954.05 8.898665e-08
954.1 8.893656e-08
954.15 8.897726e-08
954.2 8.908683e-08
954.25 8.921518e-08
954.3 8.928718e-08
954.35 8.941241e-08
954.4 8.944371e-08
954.45 8.946876e-08
954.5 8.929345e-08
954.55 8.917448e-08
954.6 8.915257e-08
954.65 8.919953e-08
954.7 8.926214e-08
954.75 8.928406e-08
954.8 8.915571e-08
954.85 8.884577e-08
954.9 8.862976e-08
954.95 8.870177e-08
955 8.880194e-08
955.05 8.87769e-08
955.1 8.858906e-08
955.15 8.829792e-08
955.2 8.819774e-08
955.25 8.811634e-08
955.3 8.817582e-08
955.35 8.826036e-08
955.4 8.829792e-08
955.45 8.827288e-08
955.5 8.792225e-08
955.55 8.761859e-08
955.6 8.749649e-08
955.65 8.759667e-08
955.7 8.768745e-08
955.75 8.777511e-08
955.8 8.794729e-08
955.85 8.790034e-08
955.9 8.787216e-08
955.95 8.773441e-08
956 8.757162e-08
956.05 8.731492e-08
956.1 8.71396e-08
956.15 8.692359e-08
956.2 8.688916e-08
956.25 8.694237e-08
956.3 8.701439e-08
956.35 8.708012e-08
956.4 8.707386e-08
956.45 8.695176e-08
956.5 8.68422e-08
956.55 8.679524e-08
956.6 8.678585e-08
956.65 8.676707e-08
956.7 8.669193e-08
956.75 8.661367e-08
956.8 8.630374e-08
956.85 8.601572e-08
956.9 8.573397e-08
956.95 8.578719e-08
957 8.58811e-08
957.05 8.597816e-08
957.1 8.60846e-08
957.15 8.547726e-08
957.2 8.512664e-08
957.25 8.505463e-08
957.3 8.505463e-08
957.35 8.51016e-08
957.4 8.516734e-08
957.45 8.511098e-08
957.5 8.500454e-08
957.55 8.496384e-08
957.6 8.483862e-08
957.65 8.463513e-08
957.7 8.445669e-08
957.75 8.435651e-08
957.8 8.442851e-08
957.85 8.44473e-08
957.9 8.445669e-08
957.95 8.455687e-08
958 8.461948e-08
958.05 8.476036e-08
958.1 8.502958e-08
958.15 8.475097e-08
958.2 8.454122e-08
958.25 8.46007e-08
958.3 8.470714e-08
958.35 8.483236e-08
958.4 8.49701e-08
958.45 8.521742e-08
958.5 8.571519e-08
958.55 8.600633e-08
958.6 8.611903e-08
958.65 8.610651e-08
958.7 8.549917e-08
958.75 8.555553e-08
958.8 8.579345e-08
958.85 8.613782e-08
958.9 8.658236e-08
958.95 8.697681e-08
959 8.697995e-08
959.05 8.695176e-08
959.1 8.693925e-08
959.15 8.693611e-08
959.2 8.692359e-08
959.25 8.715525e-08
959.3 8.756223e-08
959.35 8.767181e-08
959.4 8.775946e-08
959.45 8.746832e-08
959.5 8.728361e-08
959.55 8.733683e-08
959.6 8.732744e-08
959.65 8.722726e-08
959.7 8.726796e-08
959.75 8.740884e-08
959.8 8.74151e-08
959.85 8.728987e-08
959.9 8.720535e-08
959.95 8.726796e-08
960 8.718656e-08

# External Channel Data Cycle: 0, Au-mesh [A] (Pico Probe 3)
#
# ColumnLabels: energy Au-mesh [A] (Pico Probe 3)
#
920 1.819897e-09
920.05 1.810551e-09
920.1 1.803946e-09
920.15 1.800488e-09
920.2 1.800955e-09
920.25 1.803728e-09
920.3 1.803791e-09
920.35 1.795971e-09
920.4 1.785628e-09
920.45 1.776624e-09
920.5 1.778213e-09
920.55 1.77949e-09
920.6 1.77868e-09
920.65 1.777216e-09
920.7 1.776718e-09
920.75 1.772138e-09
920.8 1.759926e-09
920.85 1.749863e-09
920.9 1.748119e-09
920.95 1.744692e-09
921 1.744442e-09
921.05 1.743695e-09
921.1 1.742511e-09
921.15 1.737651e-09
921.2 1.73114e-09
921.25 1.728834e-09
921.3 1.728242e-09
921.35 1.728149e-09
921.4 1.727214e-09
921.45 1.72603e-09
921.5 1.724597e-09
921.55 1.723569e-09
921.6 1.72547e-09
921.65 1.722697e-09
921.7 1.719052e-09
921.75 1.7217e-09
921.8 1.724473e-09
921.85 1.725594e-09
921.9 1.725657e-09
921.95 1.728429e-09
922 1.730112e-09
922.05 1.728242e-09
922.1 1.730205e-09
922.15 1.731638e-09
922.2 1.734878e-09
922.25 1.736623e-09
922.3 1.741265e-09
922.35 1.746499e-09
922.4 1.744349e-09
922.45 1.745689e-09
922.5 1.748804e-09
922.55 1.748524e-09
922.6 1.748337e-09
922.65 1.749707e-09
922.7 1.75167e-09
922.75 1.754661e-09
922.8 1.759427e-09
922.85 1.760611e-09
922.9 1.760923e-09
922.95 1.758243e-09
923 1.752418e-09
923.05 1.748773e-09
923.1 1.747371e-09
923.15 1.752667e-09
923.2 1.755595e-09
923.25 1.755471e-09
923.3 1.756032e-09
923.35 1.758275e-09
923.4 1.757153e-09
923.45 1.752262e-09
923.5 1.745751e-09
923.55 1.743539e-09
923.6 1.74385e-09
923.65 1.743539e-09
923.7 1.741576e-09
923.75 1.741265e-09
923.8 1.736218e-09
923.85 1.731171e-09
923.9 1.725345e-09
923.95 1.726435e-09
924 1.725999e-09
924.05 1.723881e-09
924.1 1.723195e-09
924.15 1.722635e-09
924.2 1.721077e-09
924.25 1.717899e-09
924.3 1.713756e-09
924.35 1.70821e-09
924.4 1.706995e-09
924.45 1.706372e-09
924.5 1.708086e-09
924.55 1.710204e-09
924.6 1.712416e-09
924.65 1.71117e-09
924.7 1.709052e-09
924.75 1.708989e-09
924.8 1.710858e-09
924.85 1.708865e-09
924.9 1.707805e-09
924.95 1.70846e-09
925 1.710578e-09
925.05 1.711855e-09
925.1 1.71332e-09
925.15 1.712665e-09
925.2 1.71251e-09
925.25 1.712759e-09
925.3 1.7117e-09
925.35 1.711232e-09
925.4 1.71413e-09
925.45 1.71603e-09
925.5 1.719862e-09
925.55 1.716902e-09
925.6 1.717993e-09
925.65 1.714815e-09
925.7 1.71145e-09
925.75 1.711014e-09
925.8 1.712354e-09
925.85 1.711295e-09
925.9 1.71441e-09
925.95 1.711326e-09
926 1.712416e-09
926.05 1.70983e-09
926.1 1.706715e-09
926.15 1.70846e-09
926.2 1.71064e-09
926.25 1.711388e-09
926.3 1.708678e-09
926.35 1.707525e-09
926.4 1.70469e-09
926.45 1.703537e-09
926.5 1.704005e-09
926.55 1.705905e-09
926.6 1.704192e-09
926.65 1.70226e-09
926.7 1.701357e-09
926.75 1.706653e-09
926.8 1.709737e-09
926.85 1.706902e-09
926.9 1.706154e-09
926.95 1.705905e-09
927 1.704441e-09
927.05 1.703849e-09
927.1 1.699145e-09
927.15 1.698459e-09
927.2 1.70011e-09
927.25 1.701076e-09
927.3 1.703319e-09
927.35 1.703163e-09
927.4 1.700017e-09
927.45 1.69902e-09
927.5 1.700578e-09
927.55 1.701076e-09
927.6 1.695126e-09
927.65 1.693007e-09
927.7 1.693256e-09
927.75 1.693412e-09
927.8 1.692322e-09
927.85 1.690172e-09
927.9 1.688272e-09
927.95 1.64665e-09
928 1.687867e-09
928.05 1.688365e-09
928.1 1.688116e-09
928.15 1.688646e-09
928.2 1.679642e-09
928.25 1.676246e-09
928.3 1.674533e-09
928.35 1.67148e-09
928.4 1.668801e-09
928.45 1.668738e-09
928.5 1.67282e-09
928.55 1.672228e-09
928.6 1.670047e-09
928.65 1.663567e-09
928.7 1.661978e-09
928.75 1.667056e-09
928.8 1.670981e-09
928.85 1.666059e-09
928.9 1.661604e-09
928.95 1.662632e-09
929 1.656838e-09
929.05 1.651354e-09
929.1 1.648862e-09
929.15 1.652227e-09
929.2 1.659236e-09
929.25 1.664346e-09
929.3 1.664564e-09
929.35 1.662819e-09
929.4 1.659049e-09
929.45 1.65961e-09
929.5 1.662695e-09
929.55 1.664314e-09
929.6 1.664626e-09
929.65 1.667555e-09
929.7 1.669112e-09
929.75 1.67039e-09
929.8 1.67148e-09
929.85 1.671791e-09
929.9 1.67148e-09
929.95 1.671231e-09
930 1.671324e-09
930.05 1.672196e-09
930.1 1.676807e-09
930.15 1.677555e-09
930.2 1.675748e-09
930.25 1.676246e-09
930.3 1.680047e-09
930.35 1.683443e-09
930.4 1.683692e-09
930.45 1.683692e-09
930.5 1.680016e-09
930.55 1.679393e-09
930.6 1.679237e-09
930.65 1.679455e-09
930.7 1.677898e-09
930.75 1.675779e-09
930.8 1.674782e-09
930.85 1.676776e-09
930.9 1.678334e-09
930.95 1.67743e-09
931 1.676309e-09
931.05 1.674097e-09
931.1 1.666215e-09
931.15 1.659517e-09
931.2 1.661666e-09
931.25 1.662881e-09
931.3 1.659579e-09
931.35 1.658146e-09
931.4 1.661417e-09
931.45 1.65313e-09
931.5 1.649703e-09
931.55 1.648831e-09
931.6 1.651105e-09
931.65 1.654158e-09
931.7 1.657741e-09
931.75 1.646775e-09
931.8 1.647367e-09
931.85 1.650918e-09
931.9 1.644002e-09
931.95 1.640606e-09
932 1.648208e-09
932.05 1.653224e-09
932.1 1.657211e-09
932.15 1.658302e-09
932.2 1.65394e-09
932.25 1.654221e-09
932.3 1.655498e-09
932.35 1.656651e-09
932.4 1.656744e-09
932.45 1.661355e-09
932.5 1.664969e-09
932.55 1.666215e-09
932.6 1.668115e-09
932.65 1.670919e-09
932.7 1.673443e-09
932.75 1.674346e-09
932.8 1.674626e-09
932.85 1.675063e-09
932.9 1.677181e-09
932.95 1.67768e-09
933 1.679206e-09
933.05 1.679673e-09
933.1 1.67986e-09
933.15 1.680452e-09
933.2 1.682882e-09
933.25 1.684596e-09
933.3 1.682913e-09
933.35 1.677399e-09
933.4 1.675343e-09
933.45 1.674689e-09
933.5 1.674564e-09
933.55 1.672134e-09
933.6 1.669548e-09
933.65 1.67229e-09
933.7 1.673256e-09
933.75 1.665592e-09
933.8 1.662071e-09
933.85 1.661355e-09
933.9 1.660265e-09
933.95 1.658271e-09
934 1.654158e-09
934.05 1.650918e-09
934.1 1.650576e-09
934.15 1.652196e-09
934.2 1.646713e-09
934.25 1.643535e-09
934.3 1.64341e-09
934.35 1.643286e-09
934.4 1.641977e-09
934.45 1.638831e-09
934.5 1.637273e-09
934.55 1.633254e-09
934.6 1.630606e-09
934.65 1.627273e-09
934.7 1.621104e-09
934.75 1.619017e-09
934.8 1.616213e-09
934.85 1.616306e-09
934.9 1.615122e-09
934.95 1.583844e-09
935 1.612786e-09
935.05 1.611041e-09
935.1 1.610823e-09
935.15 1.61101e-09
935.2 1.613222e-09
935.25 1.614531e-09
935.3 1.611633e-09
935.35 1.607396e-09
935.4 1.605371e-09
935.45 1.603658e-09
935.5 1.603097e-09
935.55 1.604904e-09
935.6 1.60615e-09
935.65 1.605589e-09
935.7 1.603751e-09
935.75 1.603128e-09
935.8 1.602879e-09
935.85 1.604343e-09
935.9 1.606337e-09
935.95 1.60777e-09
936 1.607396e-09
936.05 1.606244e-09
936.1 1.605216e-09
936.15 1.604468e-09
936.2 1.605029e-09
936.25 1.606524e-09
936.3 1.609079e-09
936.35 1.613378e-09
936.4 1.610138e-09
936.45 1.606212e-09
936.5 1.600854e-09
936.55 1.598424e-09
936.6 1.596461e-09
936.65 1.601789e-09
936.7 1.604281e-09
936.75 1.607428e-09
936.8 1.608798e-09
936.85 1.609639e-09
936.9 1.612661e-09
936.95 1.614655e-09
937 1.614344e-09
937.05 1.612537e-09
937.1 1.614842e-09
937.15 1.617864e-09
937.2 1.621073e-09
937.25 1.625372e-09
937.3 1.62207e-09
937.35 1.621665e-09
937.4 1.622132e-09
937.45 1.624095e-09
937.5 1.626494e-09
937.55 1.628145e-09
937.6 1.629827e-09
937.65 1.634968e-09
937.7 1.63908e-09
937.75 1.640201e-09
937.8 1.639703e-09
937.85 1.639173e-09
937.9 1.638955e-09
937.95 1.640575e-09
938 1.640731e-09
938.05 1.640014e-09
938.1 1.640731e-09
938.15 1.641198e-09
938.2 1.640108e-09
938.25 1.637834e-09
938.3 1.636556e-09
938.35 1.634282e-09
938.4 1.63017e-09
938.45 1.630793e-09
938.5 1.632257e-09
938.55 1.630045e-09
938.6 1.627054e-09
938.65 1.62559e-09
938.7 1.626213e-09
938.75 1.623565e-09
938.8 1.620201e-09
938.85 1.620886e-09
938.9 1.620606e-09
938.95 1.618082e-09
939 1.614344e-09
939.05 1.611478e-09
939.1 1.609733e-09
939.15 1.61073e-09
939.2 1.608736e-09
939.25 1.604437e-09
939.3 1.604842e-09
939.35 1.606244e-09
939.4 1.605309e-09
939.45 1.604e-09
939.5 1.604e-09
939.55 1.603596e-09
939.6 1.602256e-09
939.65 1.602007e-09
939.7 1.602817e-09
939.75 1.60291e-09
939.8 1.60291e-09
939.85 1.602754e-09
939.9 1.602568e-09
939.95 1.603689e-09
940 1.604032e-09
940.05 1.603814e-09
940.1 1.602007e-09
940.15 1.600667e-09
940.2 1.602505e-09
940.25 1.567177e-09
940.3 1.607739e-09
940.35 1.607677e-09
940.4 1.608892e-09
940.45 1.608019e-09
940.5 1.607147e-09
940.55 1.608736e-09
940.6 1.609826e-09
940.65 1.609608e-09
940.7 1.608798e-09
940.75 1.611789e-09
940.8 1.615154e-09
940.85 1.616244e-09
940.9 1.615403e-09
940.95 1.611509e-09
941 1.610231e-09
941.05 1.610262e-09
941.1 1.609608e-09
941.15 1.608642e-09
941.2 1.606836e-09
941.25 1.605309e-09
941.3 1.604312e-09
941.35 1.603315e-09
941.4 1.599172e-09
941.45 1.596087e-09
941.5 1.593813e-09
941.55 1.592941e-09
941.6 1.590168e-09
941.65 1.585651e-09
941.7 1.576803e-09
941.75 1.575806e-09
941.8 1.574872e-09
941.85 1.571538e-09
941.9 1.567519e-09
941.95 1.569202e-09
942 1.569139e-09
942.05 1.564342e-09
942.1 1.560323e-09
942.15 1.558641e-09
942.2 1.556086e-09
942.25 1.554902e-09
942.3 1.550167e-09
942.35 1.551039e-09
942.4 1.552005e-09
942.45 1.552192e-09
942.5 1.553126e-09
942.55 1.55297e-09
942.6 1.557052e-09
942.65 1.559731e-09
942.7 1.562535e-09
942.75 1.563625e-09
942.8 1.558516e-09
942.85 1.556616e-09
942.9 1.557332e-09
942.95 1.557986e-09
943 1.559482e-09
943.05 1.560634e-09
943.1 1.562846e-09
943.15 1.56484e-09
943.2 1.565837e-09
943.25 1.567208e-09
943.3 1.569669e-09
943.35 1.572006e-09
943.4 1.573221e-09
943.45 1.574716e-09
943.5 1.577551e-09
943.55 1.579327e-09
943.6 1.57914e-09
943.65 1.573812e-09
943.7 1.569544e-09
943.75 1.571601e-09
943.8 1.576398e-09
943.85 1.576897e-09
943.9 1.576585e-09
943.95 1.576834e-09
944 1.576928e-09
944.05 1.576242e-09
944.1 1.575806e-09
944.15 1.57375e-09
944.2 1.57428e-09
944.25 1.574062e-09
944.3 1.574716e-09
944.35 1.575121e-09
944.4 1.571258e-09
944.45 1.569513e-09
944.5 1.571912e-09
944.55 1.578797e-09
944.6 1.573999e-09
944.65 1.571538e-09
944.7 1.569077e-09
944.75 1.566803e-09
944.8 1.565775e-09
944.85 1.56107e-09
944.9 1.560229e-09
944.95 1.563345e-09
945 1.566616e-09
945.05 1.569949e-09
945.1 1.574747e-09
945.15 1.574965e-09
945.2 1.571663e-09
945.25 1.566273e-09
945.3 1.562348e-09
945.35 1.5597e-09
945.4 1.557986e-09
945.45 1.558236e-09
945.5 1.559575e-09
945.55 1.560759e-09
945.6 1.565027e-09
945.65 1.564186e-09
945.7 1.565276e-09
945.75 1.565245e-09
945.8 1.564466e-09
945.85 1.559575e-09
945.9 1.557332e-09
945.95 1.558796e-09
946 1.560759e-09
946.05 1.560977e-09
946.1 1.561351e-09
946.15 1.561382e-09
946.2 1.561943e-09
946.25 1.562722e-09
946.3 1.56241e-09
946.35 1.561382e-09
946.4 1.562067e-09
946.45 1.56375e-09
946.5 1.564591e-09
946.55 1.563189e-09
946.6 1.559793e-09
946.65 1.555182e-09
946.7 1.554404e-09
946.75 1.555587e-09
946.8 1.552939e-09
946.85 1.551537e-09
946.9 1.550696e-09
946.95 1.549294e-09
947 1.547924e-09
947.05 1.548702e-09
947.1 1.55241e-09
947.15 1.5516e-09
947.2 1.546864e-09
947.25 1.541973e-09
947.3 1.539699e-09
947.35 1.540073e-09
947.4 1.542067e-09
947.45 1.545307e-09
947.5 1.544746e-09
947.55 1.545275e-09
947.6 1.549762e-09
947.65 1.559824e-09
947.7 1.563968e-09
947.75 1.565214e-09
947.8 1.563906e-09
947.85 1.563874e-09
947.9 1.563501e-09
947.95 1.562286e-09
948 1.56241e-09
948.05 1.563999e-09
948.1 1.565868e-09
948.15 1.567551e-09
948.2 1.568765e-09
948.25 1.569482e-09
948.3 1.570666e-09
948.35 1.570167e-09
948.4 1.569669e-09
948.45 1.570791e-09
948.5 1.572753e-09
948.55 1.574342e-09
948.6 1.576087e-09
948.65 1.57375e-09
948.7 1.570136e-09
948.75 1.56646e-09
948.8 1.560042e-09
948.85 1.557332e-09
948.9 1.555182e-09
948.95 1.553157e-09
949 1.549855e-09
949.05 1.549481e-09
949.1 1.549201e-09
949.15 1.548204e-09
949.2 1.546615e-09
949.25 1.539013e-09
949.3 1.535524e-09
949.35 1.534808e-09
949.4 1.53568e-09
949.45 1.531132e-09
949.5 1.524091e-09
949.55 1.520726e-09
949.6 1.517237e-09
949.65 1.514277e-09
949.7 1.513e-09
949.75 1.51462e-09
949.8 1.515305e-09
949.85 1.507112e-09
949.9 1.501691e-09
949.95 1.49761e-09
950 1.495086e-09
950.05 1.493124e-09
950.1 1.492781e-09
950.15 1.493186e-09
950.2 1.494806e-09
950.25 1.495554e-09
950.3 1.49652e-09
950.35 1.488264e-09
950.4 1.484837e-09
950.45 1.486301e-09
950.5 1.487578e-09
950.55 1.48951e-09
950.6 1.488762e-09
950.65 1.489884e-09
950.7 1.492376e-09
950.75 1.496083e-09
950.8 1.496769e-09
950.85 1.471534e-09
950.9 1.505367e-09
950.95 1.510258e-09
951 1.510695e-09
951.05 1.510757e-09
951.1 1.511349e-09
951.15 1.512813e-09
951.2 1.518016e-09
951.25 1.518452e-09
951.3 1.517517e-09
951.35 1.517767e-09
951.4 1.518576e-09
951.45 1.521038e-09
951.5 1.523873e-09
951.55 1.526396e-09
951.6 1.528764e-09
951.65 1.524215e-09
951.7 1.52434e-09
951.75 1.526957e-09
951.8 1.528452e-09
951.85 1.525462e-09
951.9 1.522377e-09
951.95 1.520975e-09
952 1.521692e-09
952.05 1.523032e-09
952.1 1.523343e-09
952.15 1.522969e-09
952.2 1.518172e-09
952.25 1.516334e-09
952.3 1.512813e-09
952.35 1.512813e-09
952.4 1.515617e-09
952.45 1.518763e-09
952.5 1.518203e-09
952.55 1.514371e-09
952.6 1.509885e-09
952.65 1.508638e-09
952.7 1.507299e-09
952.75 1.508576e-09
952.8 1.509075e-09
952.85 1.508389e-09
952.9 1.507361e-09
952.95 1.506551e-09
953 1.503841e-09
953.05 1.502439e-09
953.1 1.503685e-09
953.15 1.506395e-09
953.2 1.51085e-09
953.25 1.517206e-09
953.3 1.518172e-09
953.35 1.518358e-09
953.4 1.516053e-09
953.45 1.514527e-09
953.5 1.513903e-09
953.55 1.513031e-09
953.6 1.513031e-09
953.65 1.51462e-09
953.7 1.51786e-09
953.75 1.518639e-09
953.8 1.519137e-09
953.85 1.518608e-09
953.9 1.518296e-09
953.95 1.517829e-09
954 1.517829e-09
954.05 1.516458e-09
954.1 1.51596e-09
954.15 1.515897e-09
954.2 1.517642e-09
954.25 1.519947e-09
954.3 1.520664e-09
954.35 1.523156e-09
954.4 1.524371e-09
954.45 1.524714e-09
954.5 1.522004e-09
954.55 1.51895e-09
954.6 1.518826e-09
954.65 1.51867e-09
954.7 1.520415e-09
954.75 1.520851e-09
954.8 1.518919e-09
954.85 1.514371e-09
954.9 1.509511e-09
954.95 1.509635e-09
955 1.512034e-09
955.05 1.511442e-09
955.1 1.509168e-09
955.15 1.502782e-09
955.2 1.501348e-09
955.25 1.499915e-09
955.3 1.500445e-09
955.35 1.501847e-09
955.4 1.503249e-09
955.45 1.502969e-09
955.5 1.497703e-09
955.55 1.491784e-09
955.6 1.489136e-09
955.65 1.489822e-09
955.7 1.491223e-09
955.75 1.492656e-09
955.8 1.495336e-09
955.85 1.495585e-09
955.9 1.494401e-09
955.95 1.492656e-09
956 1.490071e-09
956.05 1.486177e-09
956.1 1.482968e-09
956.15 1.479073e-09
956.2 1.477329e-09
956.25 1.478295e-09
956.3 1.478731e-09
956.35 1.480288e-09
956.4 1.480693e-09
956.45 1.478388e-09
956.5 1.476083e-09
956.55 1.475117e-09
956.6 1.475491e-09
956.65 1.474992e-09
956.7 1.47384e-09
956.75 1.472593e-09
956.8 1.46792e-09
956.85 1.461316e-09
956.9 1.457297e-09
956.95 1.456767e-09
957 1.458107e-09
957.05 1.460038e-09
957.1 1.462032e-09
957.15 1.454711e-09
957.2 1.446424e-09
957.25 1.445396e-09
957.3 1.44443e-09
957.35 1.444835e-09
957.4 1.445614e-09
957.45 1.445147e-09
957.5 1.443776e-09
957.55 1.44253e-09
957.6 1.441003e-09
957.65 1.437857e-09
957.7 1.433526e-09
957.75 1.431688e-09
957.8 1.432529e-09
957.85 1.432934e-09
957.9 1.433059e-09
957.95 1.43471e-09
958 1.435178e-09
958.05 1.437296e-09
958.1 1.44119e-09
958.15 1.437545e-09
958.2 1.433807e-09
958.25 1.435053e-09
958.3 1.436891e-09
958.35 1.438511e-09
958.4 1.439757e-09
958.45 1.443651e-09
958.5 1.451876e-09
958.55 1.456206e-09
958.6 1.460755e-09
958.65 1.460256e-09
958.7 1.451222e-09
958.75 1.449259e-09
958.8 1.45306e-09
958.85 1.45739e-09
958.9 1.464556e-09
958.95 1.471721e-09
959 1.473808e-09
959.05 1.473372e-09
959.1 1.473092e-09
959.15 1.473061e-09
959.2 1.472438e-09
959.25 1.474369e-09
959.3 1.482002e-09
959.35 1.484619e-09
959.4 1.486613e-09
959.45 1.483155e-09
959.5 1.479915e-09
959.55 1.479198e-09
959.6 1.47926e-09
959.65 1.477267e-09
959.7 1.476986e-09
959.75 1.479759e-09
959.8 1.481628e-09
959.85 1.479323e-09
959.9 1.476706e-09
959.95 1.478077e-09
960 1.476332e-09

